D-Foundations DUMP FILE
==============================================================================
COMPANY    : Stichting Deltares 

DATE       : 4/7/2023
TIME       : 2:03:44 PM
FILENAME   : D:\pvcsprojects\applications\DFoundations\trunk\release\Projects\Examples\Tutorial-5.fod
CREATED BY : D-Foundations version 23.1.1.40340
==========================    BEGINNING OF DATA     ==========================
[DUMPFILE]
[INPUT DATA]
[VERSION]
Soil=1010
D-Foundations=1024
[END OF VERSION]

[VERSION EXTERNALS]
DGSFoundationCalc.dll=23.1.1.40340
[END OF VERSION EXTERNALS]

[MODEL]
1 : Model = Tension Piles (EC7-NL)
[END OF MODEL]
[SOIL COLLECTION]
    5 = number of items
[SOIL]
Clay, clean, moderate
SoilColor=5866717
SoilSoilType=3
SoilGamDry=17.00
SoilGamWet=17.00
SoilInitialVoidRatio=0.001001
SoilDiameterD50=0.00000
SoilMinVoidRatio=0.400
SoilMaxVoidRatio=0.800
SoilCohesion=0.00
SoilPhi=17.50
SoilCu=0.00
SoilMaxConeResistType=0
SoilMaxConeResist=0.00
SoilUseTension=0
SoilCa=0.0000000
SoilCcIndex=0.0000000
[END OF SOIL]
[SOIL]
Loam, sl san, moderate
SoilColor=9544960
SoilSoilType=2
SoilGamDry=20.00
SoilGamWet=20.00
SoilInitialVoidRatio=0.001001
SoilDiameterD50=0.00000
SoilMinVoidRatio=0.400
SoilMaxVoidRatio=0.800
SoilCohesion=0.00
SoilPhi=27.50
SoilCu=0.00
SoilMaxConeResistType=0
SoilMaxConeResist=0.00
SoilUseTension=1
SoilCa=0.0000000
SoilCcIndex=0.0000000
[END OF SOIL]
[SOIL]
Peat, mod pl, moderate
SoilColor=5953498
SoilSoilType=4
SoilGamDry=12.50
SoilGamWet=12.50
SoilInitialVoidRatio=0.001001
SoilDiameterD50=0.00000
SoilMinVoidRatio=0.400
SoilMaxVoidRatio=0.800
SoilCohesion=0.00
SoilPhi=15.00
SoilCu=0.00
SoilMaxConeResistType=0
SoilMaxConeResist=0.00
SoilUseTension=1
SoilCa=0.0000000
SoilCcIndex=0.0000000
[END OF SOIL]
[SOIL]
Sand, clean, moderate
SoilColor=5636095
SoilSoilType=1
SoilGamDry=18.00
SoilGamWet=20.00
SoilInitialVoidRatio=0.256082
SoilDiameterD50=0.30000
SoilMinVoidRatio=0.400
SoilMaxVoidRatio=0.800
SoilCohesion=0.00
SoilPhi=32.50
SoilCu=0.00
SoilMaxConeResistType=0
SoilMaxConeResist=0.00
SoilUseTension=1
SoilCa=0.0000000
SoilCcIndex=0.0000000
[END OF SOIL]
[SOIL]
Undetermined
SoilColor=16777215
SoilSoilType=2
SoilGamDry=0.01
SoilGamWet=0.02
SoilInitialVoidRatio=0.000000
SoilDiameterD50=0.20000
SoilMinVoidRatio=0.400
SoilMaxVoidRatio=0.800
SoilCohesion=0.00
SoilPhi=0.00
SoilCu=0.00
SoilMaxConeResistType=0
SoilMaxConeResist=0.00
SoilUseTension=1
SoilCa=1.0000000
SoilCcIndex=1.0000000
[END OF SOIL]
[END OF SOIL COLLECTION]

[RUN IDENTIFICATION]



Tutorial 5 for D-Foundations
Parking Garage on Tension Piles
-

[END OF RUN IDENTIFICATION]
[CPT LIST]
[NUMBER OF CPTS]
1
--------------------------------------
[CPTNAME]
CPT 01
[END OF CPTNAME]
[PROJECT NAME]
Unknown
[END OF PROJECT NAME]
[PROJECTID]

[END OF PROJECTID]
[PROJECT NUMBER]

[END OF PROJECT NUMBER]
[PROJECT SUBNUMBER]

[END OF PROJECT SUBNUMBER]
[LOCATION NAME]
Unknown
[END OF LOCATION NAME]
[CLIENT NAME]
Unknown
[END OF CLIENT NAME]
[COMPANYID]
Unknown
[END OF COMPANYID]
[FILEDATE]
2008-08-22
[END OF FILEDATE]
[FILEOWNER]
Unknown
[END OF FILEOWNER]
[GEF VERSION]
Unknown
[END OF GEF VERSION]
[PROCEDURECODE]
Unknown
[END OF PROCEDURECODE]
[ObjectID]
0
[END OF ObjectID]
[STARTDATE]
2008-08-22
[END OF STARTDATE]
[STARTTIME]

[END OF STARTTIME]
[EXCAVATION TYPE]
1 : Before
[END OF EXCAVATION TYPE]
[TIMEORDER TYPE]
1 : CPT - Excavation - Install
[END OF TIMEORDER TYPE]
[CPT TYPE]
1 : Electronic CPT
[END OF CPT TYPE]
[USAGE CONE VALUE]
0 : Mechanical qc required
[END OF USAGE CONE VALUE]
[XY COORDINATE SYSTEM]
Unknown
[END OF XY COORDINATE SYSTEM]
[XWORLD]
  987000000.000
[END OF XWORLD]
[XWORLD ACCURACY]
987000000.00000
[END OF XWORLD ACCURACY]
[YWORLD]
  987000000.000
[END OF YWORLD]
[YWORLD ACCURACY]
987000000.00000
[END OF YWORLD ACCURACY]
[GROUNDLEVEL]
         -0.690
[END OF GROUNDLEVEL]
[GROUNDLEVEL ACCURACY]
987000000.00000
[END OF GROUNDLEVEL ACCURACY]
[GROUNDLEVEL WAS MEASURED]
0 : True
[END OF GROUNDLEVEL WAS MEASURED]
[LEVELTEXT]

[END OF LEVELTEXT]
[PRE EXCAVATION]
          0.000
[END OF PRE EXCAVATION]
[WATERLEVEL]
  987000000.000
[END OF WATERLEVEL]
[XLOCAL]
          0.000
[END OF XLOCAL]
[YLOCAL]
          0.000
[END OF YLOCAL]
[LOCAL X CROSSSECTION]
          0.000
[END OF LOCAL X CROSSSECTION]
[INTERPRETATION MODEL]
0
[END OF INTERPRETATION MODEL]
[INTERPRETATION MODEL STRESSDEPENDENT]
0 : False
[END OF INTERPRETATION MODEL STRESSDEPENDENT]
[DEPTHRANGE]
         10.000
[END OF DEPTHRANGE]
[GRAPH MAX PERCENTAGE]
  10
[END OF GRAPH MAX PERCENTAGE]
[GRAPH WIDTH]
         10.000
[END OF GRAPH WIDTH]
[GRAPH LINEWIDTH]
   1
[END OF GRAPH LINEWIDTH]
[GRAPH BORDERWIDTH]
   1
[END OF GRAPH BORDERWIDTH]
[GRAPH BORDERCOLOR]
              0
[END OF GRAPH BORDERCOLOR]
[GRAPH FRICTIONCOLOR]
       16711680
[END OF GRAPH FRICTIONCOLOR]
[GRAPH QCCOLOR]
            255
[END OF GRAPH QCCOLOR]
[GRAPH PLANE COLOR]
              0
[END OF GRAPH PLANE COLOR]
[GRAPH FIT FOR SIZE]
0 : True
[END OF GRAPH FIT FOR SIZE]
[GRAPH FIT SYMBOL FOR SIZE]
0 : True
[END OF GRAPH FIT SYMBOL FOR SIZE]
[GRAPH SYMBOL SIZE]
          1.000
[END OF GRAPH SYMBOL SIZE]
[VOID VALUE DEPTH]
  987000000.000
[END OF VOID VALUE DEPTH]
[VOID VALUE CONE RESISTANCE]
  987000000.000
[END OF VOID VALUE CONE RESISTANCE]
[VOID VALUE PORE WATER PRESSURE]
987000000.000000
[END OF VOID VALUE PORE WATER PRESSURE]
[VOID VALUE SLEEVE FRICTION]
987000000.000000
[END OF VOID VALUE SLEEVE FRICTION]
[VOID VALUE FRICTION NUMBER]
987000000.000000
[END OF VOID VALUE FRICTION NUMBER]
[VOID VALUE EQUIVALENT ELECTRONIC QC]
987000000.000000
[END OF VOID VALUE EQUIVALENT ELECTRONIC QC]
[MEASURED DATA]
[TABLE]
DataCount=1351
[COLUMN INDICATION]
z
qc
rw
[END OF COLUMN INDICATION]
[DATA]
      -0.690        0.000        0.000000
      -0.710        9.450        0.151800
      -0.730       13.717        0.177430
      -0.750       16.833        0.195270
      -0.770       18.311        0.201490
      -0.790       18.089        0.194660
      -0.810       16.811        0.180600
      -0.830       14.994        0.170160
      -0.850       13.006        0.159210
      -0.870       10.892        0.147600
      -0.890        8.690        0.131270
      -0.910        6.595        0.111160
      -0.930        4.795        0.092100
      -0.950        3.434        0.077880
      -0.970        2.667        0.067880
      -0.990        1.997        0.055210
      -1.010        1.551        0.049540
      -1.030        1.031        0.040710
      -1.050        0.811        0.031880
      -1.070        0.661        0.026990
      -1.090        0.567        0.022710
      -1.110        0.528        0.019160
      -1.130        0.550        0.019540
      -1.150        0.594        0.020430
      -1.170        0.639        0.021270
      -1.190        0.672        0.020710
      -1.210        0.689        0.020710
      -1.230        0.833        0.018770
      -1.250        1.067        0.017960
      -1.270        1.300        0.014630
      -1.290        1.667        0.008820
      -1.310        2.083        0.008600
      -1.330        2.600        0.008930
      -1.350        2.889        0.009160
      -1.370        3.011        0.009210
      -1.390        3.022        0.009100
      -1.410        2.972        0.009100
      -1.430        2.928        0.009210
      -1.450        2.956        0.009320
      -1.470        3.028        0.009490
      -1.490        3.133        0.009600
      -1.510        3.261        0.009930
      -1.530        3.406        0.010270
      -1.550        3.578        0.010660
      -1.570        3.778        0.011040
      -1.590        3.978        0.011710
      -1.610        4.133        0.015880
      -1.630        4.239        0.019930
      -1.650        4.283        0.020490
      -1.670        4.267        0.021100
      -1.690        4.189        0.021180
      -1.710        4.072        0.020660
      -1.730        3.972        0.019990
      -1.750        3.922        0.019990
      -1.770        3.861        0.020380
      -1.790        3.806        0.020770
      -1.810        3.728        0.021210
      -1.830        3.683        0.021660
      -1.850        3.633        0.021820
      -1.870        3.583        0.025160
      -1.890        3.478        0.027210
      -1.910        3.417        0.023040
      -1.930        3.400        0.019210
      -1.950        3.550        0.019100
      -1.970        3.833        0.019380
      -1.990        4.206        0.019990
      -2.010        4.594        0.020820
      -2.030        4.950        0.021600
      -2.050        5.228        0.022160
      -2.070        5.422        0.025710
      -2.090        5.567        0.029210
      -2.110        5.717        0.029380
      -2.130        5.911        0.029660
      -2.150        6.156        0.029880
      -2.170        6.411        0.030160
      -2.190        6.683        0.030490
      -2.210        6.967        0.031430
      -2.230        7.278        0.032990
      -2.250        7.672        0.038270
      -2.270        8.089        0.043430
      -2.290        8.411        0.048380
      -2.310        8.539        0.056380
      -2.330        8.417        0.060490
      -2.350        8.144        0.060430
      -2.370        7.839        0.059600
      -2.390        7.539        0.058430
      -2.410        7.300        0.057490
      -2.430        7.189        0.053660
      -2.450        7.167        0.050270
      -2.470        7.172        0.050430
      -2.490        7.133        0.050660
      -2.510        7.033        0.050710
      -2.530        6.911        0.050490
      -2.550        6.794        0.050210
      -2.570        6.700        0.049930
      -2.590        6.594        0.049770
      -2.610        6.489        0.049660
      -2.630        6.372        0.049490
      -2.650        6.267        0.049160
      -2.670        6.211        0.048660
      -2.690        6.217        0.048210
      -2.710        6.294        0.044770
      -2.730        6.478        0.041710
      -2.750        6.772        0.045710
      -2.770        7.133        0.050270
      -2.790        7.528        0.049430
      -2.810        7.811        0.049430
      -2.830        8.039        0.049380
      -2.850        8.106        0.051820
      -2.870        7.983        0.056660
      -2.890        7.628        0.060600
      -2.910        7.206        0.060490
      -2.930        6.994        0.060270
      -2.950        6.967        0.060160
      -2.970        7.061        0.060380
      -2.990        7.150        0.060490
      -3.010        7.250        0.060660
      -3.030        7.317        0.060660
      -3.050        7.350        0.060660
      -3.070        7.311        0.060490
      -3.090        7.161        0.059160
      -3.110        6.989        0.058380
      -3.130        6.867        0.057820
      -3.150        6.944        0.054600
      -3.170        7.156        0.051820
      -3.190        7.406        0.056380
      -3.210        7.628        0.061160
      -3.230        7.789        0.062540
      -3.250        7.811        0.066660
      -3.270        7.672        0.070160
      -3.290        7.394        0.069710
      -3.310        7.050        0.068320
      -3.330        6.761        0.062820
      -3.350        6.606        0.057380
      -3.370        6.672        0.053040
      -3.390        7.044        0.050100
      -3.410        7.778        0.051540
      -3.430        8.722        0.053490
      -3.450        9.578        0.058770
      -3.470       10.161        0.067100
      -3.490       10.456        0.071600
      -3.510       10.600        0.072320
      -3.530       10.811        0.076100
      -3.550       11.200        0.080430
      -3.570       11.800        0.082490
      -3.590       12.622        0.088660
      -3.610       13.606        0.098660
      -3.630       14.539        0.108660
      -3.650       15.222        0.118210
      -3.670       15.572        0.123270
      -3.690       15.672        0.126820
      -3.710       15.672        0.129600
      -3.730       15.739        0.129160
      -3.750       15.983        0.129660
      -3.770       16.372        0.128270
      -3.790       16.694        0.121270
      -3.810       16.783        0.111770
      -3.830       16.617        0.108320
      -3.850       15.989        0.107210
      -3.870       15.194        0.108100
      -3.890       14.328        0.111770
      -3.910       14.017        0.115710
      -3.930       13.867        0.119880
      -3.950       13.822        0.121040
      -3.970       13.606        0.121600
      -3.990       13.461        0.121210
      -4.010       13.439        0.119660
      -4.030       13.456        0.118100
      -4.050       13.517        0.114270
      -4.070       13.800        0.112040
      -4.090       14.417        0.117210
      -4.110       15.244        0.122490
      -4.130       15.950        0.127540
      -4.150       16.222        0.132270
      -4.170       16.094        0.136270
      -4.190       15.867        0.139270
      -4.210       15.794        0.138600
      -4.230       15.911        0.138710
      -4.250       16.128        0.140040
      -4.270       16.300        0.142100
      -4.290       16.333        0.147320
      -4.310       16.156        0.151820
      -4.330       15.728        0.155320
      -4.350       15.089        0.157880
      -4.370       14.300        0.152710
      -4.390       13.461        0.146880
      -4.410       12.667        0.140600
      -4.430       11.939        0.131100
      -4.450       11.283        0.121820
      -4.470       10.722        0.116380
      -4.490       10.244        0.112210
      -4.510        9.878        0.108820
      -4.530        9.617        0.108490
      -4.550        9.406        0.107430
      -4.570        9.200        0.102990
      -4.590        9.017        0.099320
      -4.610        8.833        0.099100
      -4.630        8.644        0.098430
      -4.650        8.428        0.097600
      -4.670        8.317        0.093660
      -4.690        8.483        0.090100
      -4.710        9.144        0.090380
      -4.730       10.278        0.091600
      -4.750       11.689        0.094210
      -4.770       13.111        0.098020
      -4.790       14.406        0.098990
      -4.810       15.467        0.096930
      -4.830       16.217        0.094880
      -4.850       16.569        0.095660
      -4.870       16.478        0.105210
      -4.890       16.078        0.116880
      -4.910       15.589        0.121710
      -4.930       15.256        0.125040
      -4.950       15.017        0.129880
      -4.970       14.844        0.131320
      -4.990       14.672        0.132160
      -5.010       14.594        0.136100
      -5.030       14.489        0.139100
      -5.050       14.200        0.138820
      -5.070       13.689        0.138990
      -5.090       13.094        0.141430
      -5.110       12.422        0.144040
      -5.130       11.600        0.147990
      -5.150       10.656        0.147820
      -5.170        9.789        0.139990
      -5.190        9.456        0.130320
      -5.210       10.017        0.122770
      -5.230       11.456        0.120160
      -5.250       13.117        0.122380
      -5.270       14.356        0.127880
      -5.290       14.983        0.132380
      -5.310       15.272        0.135600
      -5.330       15.606        0.138880
      -5.350       16.122        0.139770
      -5.370       16.828        0.141880
      -5.390       17.611        0.148100
      -5.410       18.322        0.154270
      -5.430       18.739        0.157600
      -5.450       18.967        0.163160
      -5.470       19.022        0.168270
      -5.490       19.061        0.173040
      -5.510       19.128        0.178040
      -5.530       19.228        0.181100
      -5.550       19.278        0.180660
      -5.570       19.128        0.180660
      -5.590       18.817        0.181430
      -5.610       18.422        0.182600
      -5.630       18.000        0.186710
      -5.650       17.528        0.189990
      -5.670       16.894        0.188430
      -5.690       16.039        0.184930
      -5.710       15.050        0.172270
      -5.730       14.172        0.155430
      -5.750       13.678        0.140210
      -5.770       13.817        0.123770
      -5.790       14.661        0.111770
      -5.810       15.956        0.108990
      -5.830       17.161        0.112430
      -5.850       17.694        0.121430
      -5.870       17.489        0.132210
      -5.890       16.756        0.145210
      -5.910       16.044        0.157600
      -5.930       15.467        0.162660
      -5.950       14.994        0.166490
      -5.970       14.456        0.169100
      -5.990       13.822        0.167490
      -6.010       13.067        0.161660
      -6.030       12.233        0.151380
      -6.050       11.372        0.140100
      -6.070       10.556        0.128270
      -6.090        9.872        0.113210
      -6.110        9.394        0.098710
      -6.130        9.178        0.088660
      -6.150        9.250        0.080430
      -6.170        9.650        0.074320
      -6.190       10.417        0.073100
      -6.210       11.450        0.079160
      -6.230       12.500        0.089210
      -6.250       13.356        0.099880
      -6.270       13.978        0.110770
      -6.290       14.450        0.120930
      -6.310       14.778        0.130100
      -6.330       14.889        0.138270
      -6.350       14.778        0.142540
      -6.370       14.544        0.146320
      -6.390       14.322        0.149710
      -6.410       14.133        0.149100
      -6.430       13.967        0.147930
      -6.450       13.772        0.143210
      -6.470       13.506        0.138820
      -6.490       13.272        0.138160
      -6.510       13.139        0.134540
      -6.530       13.056        0.131100
      -6.550       12.856        0.131040
      -6.570       12.439        0.131100
      -6.590       11.833        0.130990
      -6.610       11.144        0.130210
      -6.630       10.450        0.128990
      -6.650        9.728        0.127490
      -6.670        8.967        0.122490
      -6.690        8.239        0.117040
      -6.710        7.750        0.111320
      -6.730        7.694        0.102660
      -6.750        7.978        0.097880
      -6.770        8.317        0.092240
      -6.790        8.517        0.085540
      -6.810        8.611        0.079430
      -6.830        8.700        0.071660
      -6.850        8.644        0.065600
      -6.870        8.556        0.066040
      -6.890        8.450        0.070430
      -6.910        8.672        0.072490
      -6.930        9.022        0.078540
      -6.950        9.428        0.087880
      -6.970        9.700        0.093210
      -6.990        9.833        0.098040
      -7.010        9.778        0.102210
      -7.030        9.550        0.105600
      -7.050        9.261        0.108270
      -7.070        9.083        0.103770
      -7.090        9.106        0.099430
      -7.110        9.211        0.099040
      -7.130        9.278        0.099600
      -7.150        9.233        0.100430
      -7.170        9.122        0.100880
      -7.190        9.000        0.100380
      -7.210        8.856        0.099270
      -7.230        8.656        0.098100
      -7.250        8.433        0.094100
      -7.270        8.306        0.090660
      -7.290        8.278        0.090820
      -7.310        8.294        0.091040
      -7.330        8.228        0.091210
      -7.350        8.006        0.091160
      -7.370        7.678        0.090880
      -7.390        7.344        0.090380
      -7.410        7.044        0.089770
      -7.430        6.728        0.089160
      -7.450        6.367        0.088540
      -7.470        5.939        0.087990
      -7.490        5.439        0.084100
      -7.510        4.894        0.080270
      -7.530        4.333        0.079540
      -7.550        3.789        0.078770
      -7.570        3.294        0.077990
      -7.590        2.894        0.074210
      -7.610        2.533        0.071100
      -7.630        2.156        0.070770
      -7.650        1.764        0.069710
      -7.670        1.399        0.067490
      -7.690        1.072        0.061820
      -7.710        0.797        0.056380
      -7.730        0.606        0.050930
      -7.750        0.489        0.041930
      -7.770        0.422        0.037430
      -7.790        0.417        0.033490
      -7.810        0.644        0.030660
      -7.830        1.247        0.031270
      -7.850        2.257        0.033160
      -7.870        3.322        0.039320
      -7.890        4.078        0.048930
      -7.910        4.317        0.057380
      -7.930        4.006        0.061490
      -7.950        3.361        0.061540
      -7.970        2.808        0.061210
      -7.990        2.635        0.059930
      -8.010        2.972        0.058210
      -8.030        3.494        0.054660
      -8.050        4.144        0.052160
      -8.070        4.858        0.056930
      -8.090        5.861        0.060770
      -8.110        6.939        0.061660
      -8.130        7.978        0.062660
      -8.150        8.872        0.067320
      -8.170        9.889        0.072100
      -8.190       11.044        0.077820
      -8.210       12.239        0.084660
      -8.230       13.239        0.092270
      -8.250       14.017        0.106490
      -8.270       14.639        0.120160
      -8.290       15.078        0.129820
      -8.310       15.328        0.138820
      -8.330       15.406        0.147210
      -8.350       15.311        0.151660
      -8.370       15.072        0.151990
      -8.390       14.678        0.155160
      -8.410       14.172        0.157930
      -8.430       13.633        0.153820
      -8.450       13.106        0.148930
      -8.470       12.644        0.146930
      -8.490       12.278        0.141490
      -8.510       12.178        0.133710
      -8.530       12.489        0.130160
      -8.550       13.206        0.131040
      -8.570       13.972        0.132710
      -8.590       14.400        0.137930
      -8.610       14.367        0.142600
      -8.630       14.050        0.145710
      -8.650       13.611        0.148210
      -8.670       13.067        0.143710
      -8.690       12.650        0.140380
      -8.710       11.800        0.138430
      -8.730       11.200        0.138430
      -8.750       10.283        0.133100
      -8.770        9.967        0.126430
      -8.790        9.528        0.114210
      -8.810        9.411        0.107540
      -8.830        9.678        0.095270
      -8.850       10.211        0.089880
      -8.870       10.672        0.083660
      -8.890       10.439        0.083040
      -8.910        9.761        0.088660
      -8.930        8.911        0.096820
      -8.950        8.161        0.101380
      -8.970        7.383        0.102540
      -8.990        6.622        0.108160
      -9.010        5.944        0.112930
      -9.030        5.522        0.115270
      -9.050        5.200        0.116880
      -9.070        4.767        0.110430
      -9.090        4.403        0.102160
      -9.110        4.344        0.096160
      -9.130        4.806        0.092270
      -9.150        5.653        0.088820
      -9.170        6.789        0.089320
      -9.190        7.639        0.089320
      -9.210        8.744        0.090710
      -9.230        9.394        0.090710
      -9.250        9.672        0.091540
      -9.270        9.289        0.091540
      -9.290        8.361        0.090770
      -9.310        7.828        0.090770
      -9.330        7.100        0.090380
      -9.350        6.844        0.091990
      -9.370        6.439        0.098380
      -9.390        5.956        0.105100
      -9.410        5.200        0.105660
      -9.430        4.322        0.097660
      -9.450        3.733        0.084380
      -9.470        3.756        0.072320
      -9.490        4.567        0.067880
      -9.510        5.711        0.064600
      -9.530        6.833        0.061770
      -9.550        7.589        0.066100
      -9.570        8.061        0.070880
      -9.590        8.344        0.072600
      -9.610        8.461        0.077540
      -9.630        8.367        0.082380
      -9.650        8.044        0.086930
      -9.670        7.583        0.090710
      -9.690        7.233        0.090710
      -9.710        6.761        0.090820
      -9.730        6.478        0.090820
      -9.750        6.006        0.090820
      -9.770        5.806        0.090820
      -9.790        5.278        0.084600
      -9.810        4.961        0.077930
      -9.830        4.739        0.066320
      -9.850        4.950        0.063040
      -9.870        5.222        0.059880
      -9.890        5.456        0.060210
      -9.910        5.611        0.061210
      -9.930        5.739        0.063100
      -9.950        5.756        0.067990
      -9.970        5.600        0.071600
      -9.990        5.361        0.071430
     -10.010        5.272        0.071040
     -10.030        5.567        0.071040
     -10.050        6.289        0.070600
     -10.070        7.144        0.070880
     -10.090        7.844        0.071270
     -10.110        8.378        0.072100
     -10.130        8.867        0.076490
     -10.150        9.411        0.081930
     -10.170        9.983        0.088040
     -10.190       10.367        0.091380
     -10.210       10.817        0.098930
     -10.230       11.083        0.108930
     -10.250       11.122        0.124210
     -10.270       10.889        0.127540
     -10.290        9.928        0.131660
     -10.310        9.211        0.131660
     -10.330        7.761        0.127320
     -10.350        6.761        0.119660
     -10.370        5.594        0.110820
     -10.390        5.161        0.104820
     -10.410        5.161        0.104540
     -10.430        5.539        0.111210
     -10.450        5.928        0.122320
     -10.470        5.908        0.135430
     -10.490        5.274        0.140040
     -10.510        4.215        0.133160
     -10.530        3.149        0.118320
     -10.550        2.291        0.103880
     -10.570        1.687        0.089380
     -10.590        1.294        0.078100
     -10.610        1.061        0.062990
     -10.630        0.906        0.049270
     -10.650        0.783        0.040710
     -10.670        0.700        0.033210
     -10.690        0.667        0.029880
     -10.710        0.622        0.027430
     -10.730        0.589        0.024100
     -10.750        0.556        0.018540
     -10.770        0.556        0.018540
     -10.790        0.567        0.018380
     -10.810        0.583        0.018380
     -10.830        0.600        0.018660
     -10.850        0.594        0.018770
     -10.870        0.589        0.018880
     -10.890        0.567        0.018990
     -10.910        0.550        0.019040
     -10.930        0.550        0.019160
     -10.950        0.550        0.019160
     -10.970        0.550        0.019160
     -10.990        0.550        0.019160
     -11.010        0.550        0.019100
     -11.030        0.550        0.019100
     -11.050        0.544        0.019040
     -11.070        0.539        0.019100
     -11.090        0.517        0.019040
     -11.110        0.500        0.019040
     -11.130        0.506        0.019100
     -11.150        0.511        0.019210
     -11.170        0.528        0.019270
     -11.190        0.539        0.019270
     -11.210        0.517        0.019320
     -11.230        0.506        0.019320
     -11.250        0.511        0.019380
     -11.270        0.533        0.019320
     -11.290        0.550        0.019320
     -11.310        0.550        0.019320
     -11.330        0.550        0.019380
     -11.350        0.544        0.019380
     -11.370        0.539        0.019320
     -11.390        0.517        0.019270
     -11.410        0.500        0.019210
     -11.430        0.500        0.019210
     -11.450        0.506        0.019160
     -11.470        0.506        0.019210
     -11.490        0.506        0.019210
     -11.510        0.506        0.019270
     -11.530        0.511        0.019270
     -11.550        0.533        0.019320
     -11.570        0.550        0.019380
     -11.590        0.550        0.019380
     -11.610        0.550        0.019270
     -11.630        0.544        0.019160
     -11.650        0.539        0.019100
     -11.670        0.517        0.019100
     -11.690        0.494        0.019040
     -11.710        0.489        0.018930
     -11.730        0.467        0.018880
     -11.750        0.456        0.018820
     -11.770        0.456        0.018770
     -11.790        0.456        0.018660
     -11.810        0.450        0.018540
     -11.830        0.450        0.018490
     -11.850        0.450        0.018430
     -11.870        0.450        0.018430
     -11.890        0.450        0.018380
     -11.910        0.456        0.018270
     -11.930        0.467        0.015210
     -11.950        0.500        0.015540
     -11.970        0.544        0.019320
     -11.990        0.578        0.019380
     -12.010        0.578        0.019430
     -12.030        0.544        0.019430
     -12.050        0.500        0.019270
     -12.070        0.467        0.018770
     -12.090        0.450        0.018160
     -12.110        0.450        0.014540
     -12.130        0.461        0.012100
     -12.150        0.536        0.017660
     -12.170        0.699        0.023820
     -12.190        0.967        0.029820
     -12.210        1.244        0.038320
     -12.230        1.422        0.043210
     -12.250        1.417        0.047160
     -12.270        1.278        0.050160
     -12.290        1.111        0.048490
     -12.310        0.939        0.046430
     -12.330        0.778        0.040990
     -12.350        0.644        0.032540
     -12.370        0.572        0.027430
     -12.390        0.528        0.023100
     -12.410        0.544        0.019600
     -12.430        0.600        0.020100
     -12.450        0.661        0.020430
     -12.470        0.711        0.020320
     -12.490        0.717        0.020210
     -12.510        0.650        0.020100
     -12.530        0.567        0.019710
     -12.550        0.517        0.019040
     -12.570        0.506        0.018490
     -12.590        0.517        0.018270
     -12.610        0.544        0.014990
     -12.630        0.583        0.011600
     -12.650        0.594        0.011660
     -12.670        0.589        0.011710
     -12.690        0.567        0.015040
     -12.710        0.550        0.018270
     -12.730        0.550        0.014770
     -12.750        0.550        0.011320
     -12.770        0.550        0.011320
     -12.790        0.550        0.011210
     -12.810        0.550        0.011490
     -12.830        0.556        0.011540
     -12.850        0.567        0.012160
     -12.870        0.600        0.015660
     -12.890        0.650        0.019270
     -12.910        0.689        0.019160
     -12.930        0.694        0.019210
     -12.950        0.672        0.019490
     -12.970        0.633        0.019320
     -12.990        0.611        0.018820
     -13.010        0.639        0.018160
     -13.030        0.650        0.014660
     -13.050        0.639        0.011320
     -13.070        0.617        0.011320
     -13.090        0.600        0.011210
     -13.110        0.594        0.011270
     -13.130        0.589        0.011270
     -13.150        0.567        0.011380
     -13.170        0.550        0.011320
     -13.190        0.550        0.011270
     -13.210        0.550        0.011160
     -13.230        0.550        0.011040
     -13.250        0.550        0.011100
     -13.270        0.556        0.011320
     -13.290        0.567        0.011430
     -13.310        0.594        0.011490
     -13.330        0.628        0.011210
     -13.350        0.633        0.011320
     -13.370        0.611        0.011210
     -13.390        0.606        0.011160
     -13.410        0.639        0.011540
     -13.430        0.722        0.012210
     -13.450        0.933        0.016430
     -13.470        1.303        0.020880
     -13.490        1.824        0.022540
     -13.510        2.367        0.028380
     -13.530        2.783        0.037990
     -13.550        2.956        0.043770
     -13.570        2.803        0.048490
     -13.590        2.432        0.054490
     -13.610        1.960        0.053210
     -13.630        1.533        0.047770
     -13.650        1.183        0.042320
     -13.670        0.939        0.036540
     -13.690        0.778        0.031040
     -13.710        0.700        0.022600
     -13.730        0.661        0.018100
     -13.750        0.644        0.013820
     -13.770        0.656        0.010770
     -13.790        0.672        0.010990
     -13.810        0.811        0.011820
     -13.830        1.158        0.016210
     -13.850        1.735        0.021430
     -13.870        2.356        0.024710
     -13.890        2.861        0.031820
     -13.910        3.100        0.044820
     -13.930        2.975        0.052540
     -13.950        2.546        0.054660
     -13.970        2.001        0.052710
     -13.990        1.500        0.047320
     -14.010        1.161        0.041320
     -14.030        0.972        0.031820
     -14.050        0.894        0.026160
     -14.070        0.867        0.021660
     -14.090        0.844        0.015040
     -14.110        0.789        0.015040
     -14.130        0.733        0.018430
     -14.150        0.700        0.018380
     -14.170        0.700        0.018320
     -14.190        0.700        0.014880
     -14.210        0.700        0.011320
     -14.230        0.700        0.011210
     -14.250        0.700        0.011210
     -14.270        0.700        0.011270
     -14.290        0.706        0.011040
     -14.310        0.711        0.010930
     -14.330        0.739        0.011770
     -14.350        0.778        0.015880
     -14.370        0.897        0.019160
     -14.390        1.137        0.018040
     -14.410        1.494        0.013990
     -14.430        1.883        0.010930
     -14.450        2.222        0.011490
     -14.470        2.433        0.012210
     -14.490        2.600        0.016600
     -14.510        2.717        0.021600
     -14.530        2.744        0.023380
     -14.550        2.633        0.027660
     -14.570        2.406        0.030770
     -14.590        2.139        0.029270
     -14.610        1.944        0.027430
     -14.630        1.839        0.022380
     -14.650        1.756        0.018210
     -14.670        1.628        0.014820
     -14.690        1.472        0.011930
     -14.710        1.272        0.015770
     -14.730        1.078        0.019160
     -14.750        0.961        0.018270
     -14.770        0.928        0.013990
     -14.790        0.956        0.010380
     -14.810        1.011        0.010710
     -14.830        1.044        0.010880
     -14.850        1.033        0.010320
     -14.870        0.961        0.009320
     -14.890        0.906        0.008100
     -14.910        0.872        0.003990
     -14.930        1.092        0.001770
     -14.950        2.001        0.008430
     -14.970        3.942        0.020490
     -14.990        6.757        0.033430
     -15.010        9.906        0.050540
     -15.030       12.789        0.071270
     -15.050       15.156        0.091490
     -15.070       16.872        0.110660
     -15.090       18.072        0.128710
     -15.110       18.933        0.146040
     -15.130       19.694        0.160100
     -15.150       20.367        0.171100
     -15.170       20.856        0.182930
     -15.190       21.033        0.197990
     -15.210       20.906        0.212270
     -15.230       20.494        0.225160
     -15.250       19.872        0.236210
     -15.270       19.083        0.238160
     -15.290       18.167        0.230600
     -15.310       17.222        0.218210
     -15.330       16.311        0.202710
     -15.350       15.528        0.188490
     -15.370       14.861        0.178540
     -15.390       14.228        0.169040
     -15.410       13.578        0.159770
     -15.430       12.894        0.150380
     -15.450       12.211        0.141040
     -15.470       11.572        0.131820
     -15.490       10.978        0.126160
     -15.510       10.444        0.120600
     -15.530        9.950        0.111820
     -15.550        9.483        0.106380
     -15.570        9.094        0.100990
     -15.590        8.867        0.092430
     -15.610        8.850        0.087710
     -15.630        9.083        0.083660
     -15.650        9.567        0.080430
     -15.670       10.239        0.081380
     -15.690       11.022        0.083490
     -15.710       11.844        0.089160
     -15.730       12.644        0.098160
     -15.750       13.356        0.103540
     -15.770       13.928        0.106790
     -15.790       14.422        0.107820
     -15.810       14.850        0.102540
     -15.830       15.233        0.099930
     -15.850       15.550        0.103320
     -15.870       15.856        0.109820
     -15.890       16.200        0.119880
     -15.910       16.694        0.129820
     -15.930       17.217        0.139210
     -15.950       17.639        0.147210
     -15.970       17.883        0.150600
     -15.990       18.061        0.149770
     -16.010       18.300        0.148880
     -16.030       18.700        0.148710
     -16.050       19.383        0.149490
     -16.070       20.411        0.151270
     -16.090       21.728        0.153600
     -16.110       23.128        0.159880
     -16.130       24.394        0.169710
     -16.150       25.383        0.179490
     -16.170       26.089        0.188990
     -16.190       26.539        0.197880
     -16.210       26.800        0.202930
     -16.230       26.883        0.207380
     -16.250       26.800        0.211430
     -16.270       26.567        0.211430
     -16.290       26.244        0.210770
     -16.310       25.917        0.209540
     -16.330       25.644        0.207990
     -16.350       25.494        0.203210
     -16.370       25.489        0.198540
     -16.390       25.578        0.197540
     -16.410       25.689        0.193380
     -16.430       25.700        0.189540
     -16.450       25.550        0.189270
     -16.470       25.294        0.189040
     -16.490       25.011        0.188660
     -16.510       24.767        0.188270
     -16.530       24.567        0.184770
     -16.550       24.406        0.181430
     -16.570       24.272        0.181430
     -16.590       24.178        0.181320
     -16.610       24.144        0.181160
     -16.630       24.144        0.180930
     -16.650       24.128        0.180600
     -16.670       24.078        0.180210
     -16.690       23.989        0.179820
     -16.710       23.906        0.179820
     -16.730       23.767        0.179100
     -16.750       23.633        0.175490
     -16.770       23.456        0.165380
     -16.790       23.356        0.155380
     -16.810       23.222        0.141990
     -16.830       23.033        0.137930
     -16.850       22.683        0.132710
     -16.870       22.417        0.136040
     -16.890       22.111        0.142100
     -16.910       22.022        0.148040
     -16.930       21.933        0.153990
     -16.950       21.983        0.157320
     -16.970       21.994        0.162540
     -16.990       22.000        0.166320
     -17.010       22.017        0.170100
     -17.030       22.050        0.170660
     -17.050       22.106        0.171380
     -17.070       22.178        0.172160
     -17.090       22.306        0.176160
     -17.110       22.494        0.179820
     -17.130       22.767        0.180160
     -17.150       23.122        0.180770
     -17.170       23.500        0.181770
     -17.190       23.883        0.186430
     -17.210       24.133        0.189770
     -17.230       24.500        0.193040
     -17.250       24.861        0.197930
     -17.270       25.272        0.202430
     -17.290       25.422        0.205770
     -17.310       25.328        0.210160
     -17.330       25.100        0.209990
     -17.350       24.733        0.209380
     -17.370       24.483        0.209380
     -17.390       24.044        0.206880
     -17.410       23.617        0.202040
     -17.430       23.122        0.197380
     -17.450       22.922        0.194040
     -17.470       22.967        0.189100
     -17.490       23.206        0.189380
     -17.510       23.578        0.190430
     -17.530       24.006        0.191880
     -17.550       24.472        0.196660
     -17.570       24.933        0.201430
     -17.590       25.344        0.202820
     -17.610       25.617        0.207430
     -17.630       25.689        0.211820
     -17.650       25.600        0.215660
     -17.670       25.517        0.218930
     -17.690       25.583        0.218820
     -17.710       25.700        0.218820
     -17.730       26.061        0.222270
     -17.750       26.428        0.227990
     -17.770       26.806        0.228880
     -17.790       26.906        0.228880
     -17.810       26.517        0.215320
     -17.830       25.794        0.199820
     -17.850       24.644        0.184380
     -17.870       23.878        0.181040
     -17.890       22.833        0.180430
     -17.910       22.111        0.181100
     -17.930       21.294        0.181990
     -17.950       21.094        0.185320
     -17.970       20.861        0.188600
     -17.990       20.700        0.188320
     -18.010       20.533        0.184540
     -18.030       20.517        0.180710
     -18.050       20.544        0.180320
     -18.070       20.606        0.180430
     -18.090       20.722        0.181040
     -18.110       20.994        0.182040
     -18.130       21.450        0.186660
     -18.150       21.917        0.191490
     -18.170       22.161        0.192990
     -18.190       22.078        0.197430
     -18.210       21.894        0.200770
     -18.230       21.367        0.199540
     -18.250       20.806        0.197820
     -18.270       20.072        0.192820
     -18.290       19.722        0.189490
     -18.310       19.344        0.186880
     -18.330       19.167        0.182600
     -18.350       19.122        0.178490
     -18.370       19.272        0.178490
     -18.390       19.800        0.177990
     -18.410       20.372        0.174990
     -18.430       21.150        0.172320
     -18.450       21.533        0.175660
     -18.470       22.406        0.181990
     -18.490       23.472        0.187990
     -18.510       24.950        0.194820
     -18.530       26.117        0.202040
     -18.550       27.050        0.215660
     -18.570       27.583        0.228540
     -18.590       27.650        0.236930
     -18.610       27.306        0.241270
     -18.630       26.672        0.241320
     -18.650       25.867        0.240320
     -18.670       24.956        0.238160
     -18.690       23.933        0.232100
     -18.710       23.217        0.228770
     -18.730       22.311        0.218880
     -18.750       21.739        0.199430
     -18.770       21.300        0.172660
     -18.790       21.400        0.155990
     -18.810       22.039        0.151270
     -18.830       22.800        0.154990
     -18.850       23.844        0.162270
     -18.870       24.411        0.172270
     -18.890       25.278        0.187710
     -18.910       26.011        0.198380
     -18.930       26.828        0.214540
     -18.950       27.061        0.221210
     -18.970       27.156        0.224820
     -18.990       27.144        0.229710
     -19.010       27.144        0.237880
     -19.030       27.128        0.242320
     -19.050       27.033        0.246540
     -19.070       26.783        0.250540
     -19.090       26.344        0.250270
     -19.110       25.761        0.248820
     -19.130       25.089        0.246320
     -19.150       24.378        0.240160
     -19.170       23.706        0.231040
     -19.190       23.100        0.222380
     -19.210       22.717        0.219040
     -19.230       22.222        0.216320
     -19.250       21.700        0.211930
     -19.270       20.978        0.207490
     -19.290       20.594        0.204160
     -19.310       19.956        0.197430
     -19.330       19.289        0.191990
     -19.350       18.417        0.186600
     -19.370       18.000        0.183270
     -19.390       17.550        0.176320
     -19.410       17.261        0.171930
     -19.430       16.978        0.168210
     -19.450       16.944        0.164880
     -19.470       17.039        0.162210
     -19.490       17.172        0.166100
     -19.510       17.328        0.169990
     -19.530       17.417        0.170430
     -19.550       17.461        0.170600
     -19.570       17.506        0.170490
     -19.590       17.594        0.170210
     -19.610       17.761        0.170100
     -19.630       18.033        0.169930
     -19.650       18.400        0.169710
     -19.670       18.911        0.169540
     -19.690       19.600        0.169660
     -19.710       20.117        0.169660
     -19.730       21.100        0.171430
     -19.750       22.156        0.169990
     -19.770       23.528        0.165770
     -19.790       24.211        0.162430
     -19.810       25.033        0.156880
     -19.830       25.500        0.157430
     -19.850       26.061        0.159820
     -19.870       26.144        0.166490
     -19.890       26.728        0.175600
     -19.910       27.478        0.186380
     -19.930       28.478        0.199930
     -19.950       28.994        0.206600
     -19.970       29.622        0.213710
     -19.990       30.072        0.218320
     -20.010       30.556        0.222490
     -20.030       30.689        0.226490
     -20.050       30.711        0.230660
     -20.070       30.667        0.232210
     -20.090       30.544        0.237100
     -20.110       30.439        0.241270
     -20.130       30.383        0.241540
     -20.150       30.411        0.241600
     -20.170       30.500        0.241380
     -20.190       30.611        0.240710
     -20.210       30.694        0.240710
     -20.230       30.822        0.239040
     -20.250       30.922        0.238820
     -20.270       31.078        0.238990
     -20.290       31.178        0.238990
     -20.310       31.428        0.241490
     -20.330       31.717        0.243100
     -20.350       32.006        0.247600
     -20.370       32.106        0.250930
     -20.390       31.744        0.252320
     -20.410       31.156        0.255820
     -20.430       30.328        0.258880
     -20.450       29.861        0.258880
     -20.470       29.183        0.257820
     -20.490       28.433        0.253380
     -20.510       27.333        0.248160
     -20.530       26.322        0.242380
     -20.550       25.256        0.236270
     -20.570       24.294        0.229990
     -20.590       23.567        0.220600
     -20.610       23.061        0.211710
     -20.630       22.722        0.206770
     -20.650       22.483        0.202160
     -20.670       22.300        0.197770
     -20.690       22.144        0.193540
     -20.710       22.044        0.190210
     -20.730       21.872        0.186630
     -20.750       21.689        0.177820
     -20.770       21.467        0.163430
     -20.790       21.383        0.153430
     -20.810       21.194        0.150710
     -20.830       20.833        0.151430
     -20.850       20.361        0.151490
     -20.870       20.044        0.151490
     -20.890       20.072        0.154210
     -20.910       20.217        0.159880
     -20.930       20.389        0.167990
     -20.950       20.439        0.171320
     -20.970       20.478        0.171770
     -20.990       20.494        0.175040
     -21.010       20.494        0.178270
     -21.030       20.456        0.174930
     -21.050       20.422        0.171710
     -21.070       20.389        0.175210
     -21.090       20.344        0.178600
     -21.110       20.278        0.178600
     -21.130       20.200        0.178540
     -21.150       20.100        0.178490
     -21.170       20.000        0.178320
     -21.190       19.900        0.174770
     -21.210       19.806        0.170990
     -21.230       19.706        0.170540
     -21.250       19.617        0.170210
     -21.270       19.544        0.167350
     -21.290       19.500        0.158490
     -21.310       19.433        0.147320
     -21.330       19.344        0.136380
     -21.350       19.050        0.131990
     -21.370       18.689        0.137100
     -21.390       18.289        0.141820
     -21.410       18.256        0.146880
     -21.430       18.350        0.151880
     -21.450       18.533        0.156710
     -21.470       18.600        0.160930
     -21.490       18.661        0.161160
     -21.510       18.767        0.160820
     -21.530       18.917        0.160160
     -21.550       19.106        0.159660
     -21.570       19.333        0.159600
     -21.590       19.633        0.159990
     -21.610       20.017        0.160990
     -21.630       20.433        0.162540
     -21.650       20.828        0.167930
     -21.670       21.178        0.173380
     -21.690       21.500        0.178270
     -21.710       21.850        0.181770
     -21.730       22.339        0.183540
     -21.750       23.117        0.180130
     -21.770       24.367        0.168820
     -21.790       26.217        0.161380
     -21.810       28.408        0.158540
     -21.830       30.528        0.170380
     -21.850       32.178        0.191930
     -21.870       33.400        0.216270
     -21.890       34.272        0.239770
     -21.910       34.861        0.258430
     -21.930       35.139        0.275660
     -21.950       35.078        0.288040
     -21.970       34.739        0.292930
     -21.990       34.094        0.297040
     -22.010       33.089        0.300210
     -22.030       31.678        0.298820
     -22.050       29.900        0.295990
     -22.070       27.933        0.288210
     -22.090       26.006        0.272600
     -22.110       24.322        0.256040
     -22.130       22.956        0.239660
     -22.150       21.883        0.220880
     -22.170       21.061        0.203270
     -22.190       20.428        0.189820
     -22.210       19.917        0.180380
     -22.230       19.483        0.171770
     -22.250       19.111        0.167210
     -22.270       18.811        0.163270
     -22.290       18.544        0.159430
     -22.310       18.311        0.158990
     -22.330       18.106        0.158490
     -22.350       17.939        0.158210
     -22.370       17.828        0.154820
     -22.390       17.800        0.151770
     -22.410       17.833        0.155660
     -22.430       17.917        0.159820
     -22.450       18.067        0.160930
     -22.470       18.244        0.162160
     -22.490       18.433        0.166600
     -22.510       18.583        0.170710
     -22.530       18.661        0.171040
     -22.550       18.644        0.170930
     -22.570       18.533        0.170320
     -22.590       18.378        0.169430
     -22.610       18.278        0.168490
     -22.630       18.272        0.167660
     -22.650       18.356        0.163710
     -22.670       18.533        0.160040
     -22.690       18.822        0.159990
     -22.710       19.167        0.160210
     -22.730       19.550        0.160660
     -22.750       19.950        0.161270
     -22.770       20.356        0.161880
     -22.790       20.772        0.160770
     -22.810       21.217        0.154540
     -22.830       21.694        0.142770
     -22.850       22.133        0.143490
     -22.870       22.294        0.149770
     -22.890       22.189        0.158210
     -22.910       21.861        0.162710
     -22.930       21.689        0.167380
     -22.950       21.628        0.172160
     -22.970       21.700        0.176490
     -22.990       21.772        0.179710
     -23.010       21.867        0.179040
     -23.030       22.011        0.178540
     -23.050       22.206        0.178210
     -23.070       22.422        0.174990
     -23.090       22.650        0.171600
     -23.110       22.894        0.171490
     -23.130       23.150        0.170820
     -23.150       23.406        0.169930
     -23.170       23.672        0.169100
     -23.190       23.978        0.168710
     -23.210       24.356        0.169040
     -23.230       24.756        0.170660
     -23.250       25.144        0.173100
     -23.270       25.533        0.178710
     -23.290       25.917        0.186770
     -23.310       26.339        0.191320
     -23.330       26.883        0.192210
     -23.350       27.606        0.196320
     -23.370       28.439        0.199990
     -23.390       29.256        0.201100
     -23.410       29.978        0.202540
     -23.430       30.617        0.207660
     -23.450       31.189        0.211880
     -23.470       31.656        0.215380
     -23.490       32.017        0.218210
     -23.510       32.294        0.214100
     -23.530       32.561        0.210270
     -23.550       32.861        0.209710
     -23.570       33.117        0.210160
     -23.590       33.250        0.211380
     -23.610       33.228        0.213160
     -23.630       33.150        0.218990
     -23.650       32.983        0.227540
     -23.670       32.656        0.231540
     -23.690       32.011        0.230100
     -23.710       31.056        0.227540
     -23.730       29.861        0.221430
     -23.750       28.706        0.207710
     -23.770       27.778        0.192380
     -23.790       27.150        0.179040
     -23.810       26.728        0.173990
     -23.830       26.294        0.171210
     -23.850       25.933        0.170270
     -23.870       25.650        0.168820
     -23.890       25.717        0.167600
     -23.910       25.911        0.163380
     -23.930       26.211        0.159710
     -23.950       26.483        0.160160
     -23.970       26.833        0.162160
     -23.990       27.211        0.168210
     -24.010       27.489        0.174320
     -24.030       27.444        0.179600
     -24.050       26.939        0.187430
     -24.070       25.956        0.190270
     -24.090       24.689        0.188210
     -24.110       23.483        0.181990
     -24.130       22.583        0.175820
     -24.150       22.056        0.170270
     -24.170       21.844        0.162380
     -24.190       21.889        0.158820
     -24.210       22.089        0.159270
     -24.230       22.356        0.160040
     -24.250       22.661        0.161320
     -24.270       23.000        0.162990
     -24.290       23.361        0.167930
     -24.310       23.633        0.172270
     -24.330       23.678        0.176320
     -24.350       23.400        0.180380
     -24.370       22.922        0.181160
     -24.390       22.406        0.181710
     -24.410       21.972        0.185380
     -24.430       21.600        0.188770
     -24.450       21.233        0.188380
     -24.470       20.850        0.187380
     -24.490       20.439        0.182540
     -24.510       20.011        0.177430
     -24.530       19.583        0.172210
     -24.550       19.156        0.166540
     -24.570       18.706        0.161040
     -24.590       18.250        0.152380
     -24.610       17.806        0.147660
     -24.630       17.378        0.143040
     -24.650       17.011        0.138710
     -24.670       16.722        0.137880
     -24.690       16.489        0.133820
     -24.710       16.322        0.129490
     -24.730       16.222        0.128320
     -24.750       16.172        0.125430
     -24.770       16.189        0.122490
     -24.790       16.289        0.120820
     -24.810       16.461        0.111430
     -24.830       16.597        0.106040
     -24.850       16.556        0.107320
     -24.870       16.344        0.112320
     -24.890       16.156        0.117880
     -24.910       16.128        0.123210
     -24.930       16.156        0.127770
     -24.950       16.150        0.131770
     -24.970       16.033        0.135270
     -24.990       15.928        0.138100
     -25.010       15.856        0.133820
     -25.030       15.839        0.129380
     -25.050       15.906        0.129040
     -25.070       16.067        0.129320
     -25.090       16.306        0.129490
     -25.110       16.556        0.129540
     -25.130       16.850        0.129990
     -25.150       17.233        0.130990
     -25.170       17.761        0.132710
     -25.190       18.389        0.137990
     -25.210       18.983        0.143160
     -25.230       19.378        0.148380
     -25.250       19.500        0.156660
     -25.270       19.400        0.161320
     -25.290       19.200        0.161660
     -25.310       19.017        0.161770
     -25.330       18.878        0.165660
     -25.350       18.800        0.169210
     -25.370       18.717        0.168710
     -25.390       18.528        0.168040
     -25.410       18.211        0.164040
     -25.430       17.839        0.161210
     -25.450       17.594        0.161100
     -25.470       17.633        0.162040
     -25.490       17.972        0.166040
     -25.510       18.383        0.169820
     -25.530       18.633        0.169380
     -25.550       18.456        0.167770
     -25.570       17.850        0.161990
     -25.590       17.056        0.155880
     -25.610       16.350        0.149660
     -25.630       15.844        0.141160
     -25.650       15.489        0.133430
     -25.670       15.156        0.129770
     -25.690       14.789        0.129990
     -25.710       14.411        0.130320
     -25.730       14.067        0.129600
     -25.750       13.800        0.126600
     -25.770       13.633        0.120490
     -25.790       13.583        0.112210
     -25.810       13.272        0.109320
     -25.830       12.950        0.109490
     -25.850       12.589        0.109600
     -25.870       12.844        0.110160
     -25.890       13.161        0.110820
     -25.910       13.561        0.111430
     -25.930       13.722        0.111380
     -25.950       13.944        0.111100
     -25.970       14.267        0.110990
     -25.990       14.678        0.111540
     -26.010       15.161        0.112710
     -26.030       15.694        0.118040
     -26.050       16.239        0.123320
     -26.070       16.750        0.127540
     -26.090       17.239        0.130710
     -26.110       17.694        0.130880
     -26.130       18.161        0.131320
     -26.150       18.722        0.132210
     -26.170       19.394        0.136380
     -26.190       20.172        0.141160
     -26.210       20.889        0.144040
     -26.230       21.472        0.149820
     -26.250       21.878        0.158100
     -26.270       22.167        0.161160
     -26.290       22.394        0.160210
     -26.310       22.661        0.159770
     -26.330       22.850        0.159430
     -26.350       22.750        0.159210
     -26.370       22.272        0.158660
     -26.390       21.606        0.157270
     -26.410       20.961        0.152490
     -26.430       20.478        0.147880
     -26.450       20.139        0.143770
     -26.470       19.911        0.139770
     -26.490       19.839        0.139210
     -26.510       19.922        0.138600
     -26.530       20.128        0.138490
     -26.550       20.417        0.138100
     -26.570       20.678        0.134930
     -26.590       20.900        0.131100
     -26.610       21.106        0.130660
     -26.630       21.350        0.129160
     -26.650       21.633        0.128540
     -26.670       21.989        0.129270
     -26.690       22.350        0.131270
     -26.710       22.733        0.133660
     -26.730       23.022        0.138100
     -26.750       23.133        0.140770
     -26.770       23.050        0.139600
     -26.790       22.828        0.139270
     -26.810       22.578        0.139930
     -26.830       22.133        0.140210
     -26.850       21.672        0.139660
     -26.870       21.217        0.139600
     -26.890       21.322        0.139930
     -26.910       21.744        0.141040
     -26.930       22.383        0.142880
     -26.950       22.789        0.148380
     -26.970       22.928        0.157880
     -26.990       22.867        0.163160
     -27.010       22.733        0.167320
     -27.030       22.600        0.169710
     -27.050       22.478        0.169160
     -27.070       22.311        0.168930
     -27.090       22.089        0.169660
     -27.110       21.789        0.169710
     -27.130       21.428        0.169880
     -27.150       21.022        0.169660
     -27.170       20.600        0.169380
     -27.190       20.233        0.168540
     -27.210       19.989        0.167160
     -27.230       19.828        0.162380
     -27.250       19.728        0.157880
     -27.270       19.644        0.153540
     -27.290       19.544        0.149490
     -27.310       19.439        0.148990
     -27.330       19.300        0.148990
     -27.350       19.139        0.148880
     -27.370       18.922        0.149160
     -27.390       18.589        0.149160
     -27.410       18.067        0.148990
     -27.430       17.317        0.147820
     -27.450       16.322        0.142490
     -27.470       15.122        0.136600
     -27.490       13.839        0.130660
     -27.510       12.639        0.121430
     -27.530       11.639        0.112490
     -27.550       10.861        0.107210
     -27.570       10.278        0.102160
     -27.590        9.822        0.097770
     -27.610        9.439        0.093770
     -27.630        9.122        0.090430
     -27.650        8.872        0.090430
     -27.670        8.667        0.090430
     -27.690        8.500        0.091300
[END OF DATA]
[END OF TABLE]
[END OF MEASURED DATA]
[END OF NUMBER OF CPTS]
[END OF CPT LIST]

[PROFILES]
   1 = number of items
CPT 01
    0 : Matching CPT = CPT 01
        0.00 : X coordinate [m]
        0.00 : Y coordinate [m]
       -2.00 : Phreatic level [m]
      -24.00 : Pile tip level [m]
        1.00 : Overconsolidation ratio of bearing layer [m]
        0.00 : Top of positive skin friction zone [m]
        0.00 : Bottom of negative skin friction zone [m]
        0.11 : Expected ground level settlement [m]
        0.00 : Placement depth of foundation element [m]
           3 : Concentration value according to Frohlich [-]
       -9.00 : Top of tension zone [m]
           1 : Reduction type of cone resistance = Begemann
       -6.00 : Excavation level [m]
1 : Excavation width infinite = TRUE
1 : Excavation length infinite = TRUE
     1000.00 : Distance edge pile to excavation boundary [m]
    4 : Number of layers
Layer (1)
    0 : Material = Clay, clean, moderate
      -0.690 : Top level [m]
        0.00 : Excess pore pressure at top [kN/m3]
        0.00 : Excess pore pressure at bottom [kN/m3]
        1.00 : OCR value [-]
        0.00 : Reduction of cone resistance [%]
Layer (2)
    1 : Material = Loam, sl san, moderate
      -6.000 : Top level [m]
        0.00 : Excess pore pressure at top [kN/m3]
        0.00 : Excess pore pressure at bottom [kN/m3]
        1.00 : OCR value [-]
        0.00 : Reduction of cone resistance [%]
Layer (3)
    2 : Material = Peat, mod pl, moderate
     -14.000 : Top level [m]
        0.00 : Excess pore pressure at top [kN/m3]
        0.00 : Excess pore pressure at bottom [kN/m3]
        1.00 : OCR value [-]
        0.00 : Reduction of cone resistance [%]
Layer (4)
    3 : Material = Sand, clean, moderate
     -15.000 : Top level [m]
        0.00 : Excess pore pressure at top [kN/m3]
        0.00 : Excess pore pressure at bottom [kN/m3]
        1.00 : OCR value [-]
        0.00 : Reduction of cone resistance [%]
[END OF PROFILES]
[USER CLASSIFICATION METHOD]
0
[END OF USER CLASSIFICATION METHOD]
[SLOPES]
    0 = number of items
[END OF SLOPES]
[TYPES - BEARING PILES]
-1 : pile type shown in main graph
    0 = number of items
[END OF TYPES - BEARING PILES]
[TYPES - TENSION PILES (CUR)]
0 : pile type shown in main graph
    1 = number of items
Rect 450x450
 0 : Pile type for execution factor sand/gravel = Prefabricated concrete pile
 0 : Pile type for execution factor clay/peat/loam = According to standard
 0 : Material = Concrete
        0.00 : Unit weight filling material [kN/m3]
 1 : Shape = Rectangular pile
       0.450 : Width [m)
       0.450 : Length [m)
 0 : Program defined name
[END OF TYPES - TENSION PILES (CUR)]
[TYPES - SHALLOW FOUNDATIONS]
    0 = number of items
[END OF TYPES - SHALLOW FOUNDATIONS]
[LOADS]
    0 = number of items
[END OF LOADS]
[POSITIONS - BEARING PILES]
[TABLE]
DataCount=0
[END OF TABLE]
[END OF POSITIONS - BEARING PILES]
[POSITIONS - TENSION PILES (CUR)]
[TABLE]
DataCount=9
[COLUMN INDICATION]
index
X
Y
PileHeadLevel
UseAlternatingLoads
MaxForce
MinForce
LimitStateStrGeo
LimitStateService
PileName
[END OF COLUMN INDICATION]
[DATA]
     1      0.00      0.00     -6.00 0      0.00      0.00      0.00      0.00 '1'
     2      0.00      2.00     -6.00 0      0.00      0.00      0.00      0.00 '2'
     3      0.00      4.00     -6.00 0      0.00      0.00      0.00      0.00 '3'
     4      2.00      0.00     -6.00 0      0.00      0.00      0.00      0.00 '4'
     5      2.00      2.00     -6.00 0      0.00      0.00      0.00      0.00 'center'
     6      2.00      4.00     -6.00 0      0.00      0.00      0.00      0.00 '6'
     7      4.00      0.00     -6.00 0      0.00      0.00      0.00      0.00 '7'
     8      4.00      2.00     -6.00 0      0.00      0.00      0.00      0.00 '8'
     9      4.00      4.00     -6.00 0      0.00      0.00      0.00      0.00 '9'
[END OF DATA]
[END OF TABLE]
[END OF POSITIONS - TENSION PILES (CUR)]
[POSITIONS - SHALLOW FOUNDATIONS]
[TABLE]
DataCount=0
[END OF TABLE]
[END OF POSITIONS - SHALLOW FOUNDATIONS]
[CALCULATION OPTIONS]
0 : Superstructure rigidity = Non-rigid
       0.150 : Max. allowed settlement [m]; lim. state STR/GEO
         100 : Reciprocal max. allowed rel. rotation [m/m]; lim. state STR/GEO
       0.150 : Max. allowed settlement [m]; serv. lim. state
         300 : Reciprocal max. allowed rel. rotation [m/m]; serv. lim. state
1 : Factor xi3 NEN overruled = TRUE
        1.25 : Factor xi3 user defined
1 : Factor xi4 NEN overruled = TRUE
        1.00 : Factor xi4 user defined
0 : Gamma b NEN overruled = FALSE
0 : Gamma fnk NEN overruled = FALSE
0 : Area overruled = FALSE
0 : Qb;max overruled = FALSE
       15.00 : Qb;max user defined
0 : Qc;z;a Low overruled = FALSE
       12.00 : Qc;z;a Low user defined
0 : Qc;z;a High overruled = FALSE
       15.00 : Qc;z;a High user defined
0 : Suppress qcIII reduction = FALSE
0 : Overrule excavation = FALSE
1 : Use pile group = TRUE
0 : Write intermediate results = FALSE
0 : Use interaction model = FALSE
0 : Is gamma;gamma overruled (LS EQU/STR/GEO) = FALSE
        1.00 : Factor gamma;gamma (LS EQU/STR/GEO) user defined
0 : Is gamma;coh overruled = FALSE
        1.00 : Factor gamma;coh user defined
0 : Is gamma;phi overruled = FALSE
        1.00 : Factor gamma;phi user defined
0 : Is gamma;fundr overruled = FALSE
        1.00 : Factor gamma;fundr user defined
0 : Is gamma;gamma (SLS) overruled = FALSE
        1.00 : Factor gamma;gamma (SLS) user defined
0 : Is gamma;Cc overruled = FALSE
        1.00 : Factor gamma;Cc user defined
0 : Is gamma;Ca overruled = FALSE
        1.00 : Factor gamma;Ca user defined
0 : Keep length constant when optimizing dimensions = FALSE
0 : Use the 5% limit instead of the 20% limit to determine the inclination = FALSE
0.8330 : LoadFactor between limitstate 1 and limitstate 2 for the determination of maximum vertical load option
        9.81 : Unit weight water [kN/m3]
0 : Use compaction = FALSE
0 : Gamma var overruled = FALSE
        1.00 : Factor gamma var user defined
0 : Gamma st overruled = FALSE
        1.00 : Factor gamma st user defined
0 : Gamma gamma overruled = FALSE
        1.00 : Factor gamma_gamma user defined
        0.00 : Surcharge [kN/m2]
1 : Use Piezometric levels = TRUE
0 : Use Almere rules = FALSE
0 : Use Extra Almere rules = FALSE
0 : Eea;gem overruled = FALSE
50000.00 : Eea;gem user defined
0 : Gamma s for NEN overruled = FALSE
        1.00 : Factor Gamma s for NEN user defined
[END OF CALCULATION OPTIONS]
[CALCULATIONTYPE]
 0 : Main calculationtype
 2 : Sub calculationtype
[END OF CALCULATIONTYPE]
[PRELIMINARY DESIGN]
   -9.00 : Trajectory begin [m]
  -24.00 : Trajectory end [m]
    0.25 : Trajectory interval [m]
       0 : Net bearing capacity [kN]
1 : Number of Profiles selected for calculation
0 : CPT 01
1 : Number of PileTypes selected for calculation
0 : Rect 450x450
[END OF PRELIMINARY DESIGN]
[LOCATION MAP]

       0.000
       0.000
       0.000
       0.000
[END OF LOCATION MAP]

[END OF INPUT DATA]
[DUMPFILE OUTPUT]
[PRELIMINARY DESIGN RESULTS]
   7 : Dump for option Tension piles CUR method, Indication bearing capacity
   1 : Number of Cpts 
   1 : Number of PileTypes 
   4 : Number of PileGroups 
[PILE GROUPS]
[TABLE]
DataCount=9
[COLUMN INDICATION]
PileGroupIndex
PileName
[END OF COLUMN INDICATION]
[DATA]
  1 '1'
  1 '3'
  1 '7'
  1 '9'
  2 '2'
  2 '8'
  3 '4'
  3 '6'
  4 'center'
[END OF DATA]
[END OF TABLE]
[END OF PILE GROUPS]

[RESULT INFO KSI]
[TABLE]
DataCount=4
[COLUMN INDICATION]
ResultIndex
CptIndex
PileTypeIndex
PileGroupIndex
NumberofDepths
AlphaAverage
AlphaAverageHard
AlphaAverageSoft
CptName
PileTypeName
[END OF COLUMN INDICATION]
[DATA]
  1   1   1   1  61       0.0084       0.0070       0.0104 'CPT 01' 'Rect 450x450'
  2   1   1   2  61       0.0084       0.0070       0.0104 'CPT 01' 'Rect 450x450'
  3   1   1   3  61       0.0084       0.0070       0.0104 'CPT 01' 'Rect 450x450'
  4   1   1   4  61       0.0084       0.0070       0.0104 'CPT 01' 'Rect 450x450'
[END OF DATA]
[END OF TABLE]
[END OF RESULT INFO KSI]

[RESULTS BASED ON KSI3]
[TABLE]
DataCount=244
[COLUMN INDICATION]
ResultIndex
DepthIndex
Depth
MinForce
Kluit
PileWeight
FrTension
MaxClayPercentage
F1
F1Average
[END OF COLUMN INDICATION]
[DATA]
  1   1    -9.00        7.295       94.586        7.295        7.295        0.000   1.000   1.000
  1   2    -9.25       29.211      112.116        7.903       29.211      100.000   1.000   1.000
  1   3    -9.50       50.076      131.667        8.511       50.076      100.000   1.000   1.000
  1   4    -9.75       75.381      153.378        9.119       75.381      100.000   1.000   1.000
  1   5   -10.00       93.893      177.384        9.727       93.893      100.000   1.000   1.000
  1   6   -10.25      123.703      203.824       10.335      123.703      100.000   1.000   1.000
  1   7   -10.50      147.107      232.834       10.942      147.107      100.000   1.000   1.000
  1   8   -10.75      152.092      260.829       11.550      152.092      100.000   1.000   1.000
  1   9   -11.00      154.588      289.451       12.158      154.588      100.000   1.000   1.000
  1  10   -11.25      156.941      320.060       12.766      156.941      100.000   1.000   1.000
  1  11   -11.50      159.296      352.748       13.374      159.296      100.000   1.000   1.000
  1  12   -11.75      161.625      387.605       13.982      161.625      100.000   1.000   1.000
  1  13   -12.00      163.832      424.724       14.590      163.832      100.000   1.000   1.000
  1  14   -12.25      166.959      464.195       15.198      166.959      100.000   1.000   1.000
  1  15   -12.50      170.080      506.111       15.806      170.080      100.000   1.000   1.000
  1  16   -12.75      172.543      550.561       16.414      172.543      100.000   1.000   1.000
  1  17   -13.00      175.187      597.638       17.022      175.187      100.000   1.000   1.000
  1  18   -13.25      177.749      647.433       17.630      177.749      100.000   1.000   1.000
  1  19   -13.50      181.200      700.038       18.237      181.200      100.000   1.000   1.000
  1  20   -13.75      187.290      755.542       18.845      187.290      100.000   1.000   1.000
  1  21   -14.00      193.863      814.039       19.453      193.863      100.000   1.000   1.000
  1  22   -14.25      194.471      875.240       20.061      194.471      100.000   1.000   1.000
  1  23   -14.50      195.079      938.509       20.669      195.079      100.000   1.000   1.000
  1  24   -14.75      195.687     1003.419       21.277      195.687      100.000   1.000   1.000
  1  25   -15.00      196.582     1069.873       21.885      196.582       99.835   1.000   1.000
  1  26   -15.25      212.399     1138.988       22.493      212.399       91.840   1.000   1.000
  1  27   -15.50      225.525     1211.574       23.101      225.525       86.160   1.000   1.000
  1  28   -15.75      235.099     1288.057       23.709      235.099       82.506   1.000   1.000
  1  29   -16.00      249.816     1369.010       24.317      249.816       77.344   1.000   1.000
  1  30   -16.25      266.373     1454.218       24.924      266.373       72.235   1.000   1.000
  1  31   -16.50      282.732     1543.704       25.532      282.732       67.811   1.000   1.000
  1  32   -16.75      298.906     1637.672       26.140      298.906       63.941   1.000   1.000
  1  33   -17.00      314.913     1735.844       26.748      314.913       60.524   1.000   1.000
  1  34   -17.25      330.768     1837.897       27.356      330.768       57.483   1.000   1.000
  1  35   -17.50      346.485     1943.924       27.964      346.485       54.756   1.000   1.000
  1  36   -17.75      362.078     2054.014       28.572      362.078       52.296   1.000   1.000
  1  37   -18.00      377.558     2168.260       29.180      377.558       50.063   1.000   1.000
  1  38   -18.25      392.935     2286.753       29.788      392.935       48.027   1.000   1.000
  1  39   -18.50      408.219     2409.584       30.396      408.219       46.162   1.000   1.000
  1  40   -18.75      423.418     2536.844       31.004      423.418       44.445   1.000   1.000
  1  41   -19.00      438.540     2668.625       31.612      438.540       42.860   1.000   1.000
  1  42   -19.25      453.591     2805.018       32.219      453.591       41.391   1.000   1.000
  1  43   -19.50      468.577     2946.115       32.827      468.577       40.025   1.000   1.000
  1  44   -19.75      484.073     3092.007       33.435      484.073       38.703   1.000   1.000
  1  45   -20.00      502.438     3242.784       34.043      502.438       37.236   1.000   1.000
  1  46   -20.25      520.643     3398.539       34.651      520.643       35.887   1.000   1.000
  1  47   -20.50      538.706     3559.363       35.259      538.706       34.643   1.000   1.000
  1  48   -20.75      556.639     3725.347       35.867      556.639       33.491   1.000   1.000
  1  49   -21.00      572.411     3896.582       36.475      572.411       32.543   1.000   1.000
  1  50   -21.25      586.790     4073.160       37.083      586.790       31.728   1.000   1.000
  1  51   -21.50      601.160     4255.172       37.691      601.160       30.953   1.000   1.000
  1  52   -21.75      615.522     4442.710       38.299      615.522       30.215   1.000   1.000
  1  53   -22.00      629.874     4635.864       38.907      629.874       29.513   1.000   1.000
  1  54   -22.25      644.217     4834.726       39.514      644.217       28.842   1.000   1.000
  1  55   -22.50      658.550     5039.387       40.122      658.550       28.202   1.000   1.000
  1  56   -22.75      673.149     5249.939       40.730      673.149       27.578   1.000   1.000
  1  57   -23.00      690.837     5466.473       41.338      690.837       26.853   1.000   1.000
  1  58   -23.25      708.435     5689.080       41.946      708.435       26.168   1.000   1.000
  1  59   -23.50      725.950     5917.852       42.554      725.950       25.521   1.000   1.000
  1  60   -23.75      743.391     6152.880       43.162      743.391       24.908   1.000   1.000
  1  61   -24.00      760.763     6394.255       43.770      760.763       24.325   1.000   1.000
  2   1    -9.00        7.295       85.055        7.295        7.295        0.000   1.000   1.000
  2   2    -9.25       29.211       97.625        7.903       29.211      100.000   1.000   1.000
  2   3    -9.50       50.076      111.207        8.511       50.076      100.000   1.000   1.000
  2   4    -9.75       75.381      125.868        9.119       75.381      100.000   1.000   1.000
  2   5   -10.00       93.893      141.677        9.727       93.893      100.000   1.000   1.000
  2   6   -10.25      123.703      158.702       10.335      123.703      100.000   1.000   1.000
  2   7   -10.50      147.107      177.012       10.942      147.107      100.000   1.000   1.000
  2   8   -10.75      152.092      192.956       11.550      152.092      100.000   1.000   1.000
  2   9   -11.00      154.588      208.103       12.158      154.588      100.000   1.000   1.000
  2  10   -11.25      156.941      223.746       12.766      156.941      100.000   1.000   1.000
  2  11   -11.50      159.296      239.910       13.374      159.296      100.000   1.000   1.000
  2  12   -11.75      161.625      256.616       13.982      161.625      100.000   1.000   1.000
  2  13   -12.00      163.832      273.887       14.590      163.832      100.000   1.000   1.000
  2  14   -12.25      166.959      291.746       15.198      166.959      100.000   1.000   1.000
  2  15   -12.50      170.080      310.217       15.806      170.080      100.000   1.000   1.000
  2  16   -12.75      172.543      329.321       16.414      172.543      100.000   1.000   1.000
  2  17   -13.00      175.187      349.082       17.022      175.187      100.000   1.000   1.000
  2  18   -13.25      177.749      369.522       17.630      177.749      100.000   1.000   1.000
  2  19   -13.50      181.200      390.665       18.237      181.200      100.000   1.000   1.000
  2  20   -13.75      187.290      412.533       18.845      187.290      100.000   1.000   1.000
  2  21   -14.00      193.863      435.148       19.453      193.863      100.000   1.000   1.000
  2  22   -14.25      194.471      458.101       20.061      194.471      100.000   1.000   1.000
  2  23   -14.50      195.079      480.558       20.669      195.079      100.000   1.000   1.000
  2  24   -14.75      195.687      501.911       21.277      195.687      100.000   1.000   1.000
  2  25   -15.00      196.536      522.051       21.885      196.536       99.862   1.000   1.000
  2  26   -15.25      209.834      542.553       22.493      209.834       93.098   1.000   1.000
  2  27   -15.50      220.794      564.431       23.101      220.794       88.223   1.000   1.000
  2  28   -15.75      228.804      588.211       23.709      228.804       85.038   1.000   1.000
  2  29   -16.00      241.008      614.398       24.317      241.008       80.488   1.000   1.000
  2  30   -16.25      254.601      642.290       24.924      254.601       75.937   1.000   1.000
  2  31   -16.50      267.906      671.756       25.532      267.906       71.959   1.000   1.000
  2  32   -16.75      280.947      702.930       26.140      280.947       68.448   1.000   1.000
  2  33   -17.00      293.749      735.464       26.748      293.749       65.322   1.000   1.000
  2  34   -17.25      306.335      768.969       27.356      306.335       62.517   1.000   1.000
  2  35   -17.50      318.726      803.467       27.964      318.726       59.984   1.000   1.000
  2  36   -17.75      330.941      838.981       28.572      330.941       57.681   1.000   1.000
  2  37   -18.00      342.997      875.534       29.180      342.997       55.577   1.000   1.000
  2  38   -18.25      354.908      913.149       29.788      354.908       53.645   1.000   1.000
  2  39   -18.50      366.688      951.848       30.396      366.688       51.863   1.000   1.000
  2  40   -18.75      378.349      991.655       31.004      378.349       50.212   1.000   1.000
  2  41   -19.00      389.903     1032.592       31.612      389.903       48.678   1.000   1.000
  2  42   -19.25      401.358     1074.682       32.219      401.358       47.248   1.000   1.000
  2  43   -19.50      412.723     1117.948       32.827      412.723       45.910   1.000   1.000
  2  44   -19.75      424.429     1162.412       33.435      424.429       44.607   1.000   1.000
  2  45   -20.00      438.181     1208.098       34.043      438.181       43.156   1.000   1.000
  2  46   -20.25      451.707     1255.028       34.651      451.707       41.819   1.000   1.000
  2  47   -20.50      465.031     1303.226       35.259      465.031       40.582   1.000   1.000
  2  48   -20.75      478.173     1352.713       35.867      478.173       39.432   1.000   1.000
  2  49   -21.00      489.695     1403.514       36.475      489.695       38.482   1.000   1.000
  2  50   -21.25      500.210     1455.650       37.083      500.210       37.659   1.000   1.000
  2  51   -21.50      510.717     1509.144       37.691      510.717       36.871   1.000   1.000
  2  52   -21.75      521.215     1564.020       38.299      521.215       36.116   1.000   1.000
  2  53   -22.00      531.703     1620.300       38.907      531.703       35.392   1.000   1.000
  2  54   -22.25      542.183     1678.007       39.514      542.183       34.697   1.000   1.000
  2  55   -22.50      552.652     1737.164       40.122      552.652       34.029   1.000   1.000
  2  56   -22.75      563.308     1797.794       40.730      563.308       33.375   1.000   1.000
  2  57   -23.00      576.141     1859.919       41.338      576.141       32.612   1.000   1.000
  2  58   -23.25      588.846     1923.562       41.946      588.846       31.891   1.000   1.000
  2  59   -23.50      601.435     1988.747       42.554      601.435       31.207   1.000   1.000
  2  60   -23.75      613.920     2055.495       43.162      613.920       30.558   1.000   1.000
  2  61   -24.00      626.310     2123.830       43.770      626.310       29.940   1.000   1.000
  3   1    -9.00        7.295       85.055        7.295        7.295        0.000   1.000   1.000
  3   2    -9.25       29.211       97.625        7.903       29.211      100.000   1.000   1.000
  3   3    -9.50       50.076      111.207        8.511       50.076      100.000   1.000   1.000
  3   4    -9.75       75.381      125.868        9.119       75.381      100.000   1.000   1.000
  3   5   -10.00       93.893      141.677        9.727       93.893      100.000   1.000   1.000
  3   6   -10.25      123.703      158.702       10.335      123.703      100.000   1.000   1.000
  3   7   -10.50      147.107      177.012       10.942      147.107      100.000   1.000   1.000
  3   8   -10.75      152.092      192.956       11.550      152.092      100.000   1.000   1.000
  3   9   -11.00      154.588      208.103       12.158      154.588      100.000   1.000   1.000
  3  10   -11.25      156.941      223.746       12.766      156.941      100.000   1.000   1.000
  3  11   -11.50      159.296      239.910       13.374      159.296      100.000   1.000   1.000
  3  12   -11.75      161.625      256.616       13.982      161.625      100.000   1.000   1.000
  3  13   -12.00      163.832      273.887       14.590      163.832      100.000   1.000   1.000
  3  14   -12.25      166.959      291.746       15.198      166.959      100.000   1.000   1.000
  3  15   -12.50      170.080      310.217       15.806      170.080      100.000   1.000   1.000
  3  16   -12.75      172.543      329.321       16.414      172.543      100.000   1.000   1.000
  3  17   -13.00      175.187      349.082       17.022      175.187      100.000   1.000   1.000
  3  18   -13.25      177.749      369.522       17.630      177.749      100.000   1.000   1.000
  3  19   -13.50      181.200      390.665       18.237      181.200      100.000   1.000   1.000
  3  20   -13.75      187.290      412.533       18.845      187.290      100.000   1.000   1.000
  3  21   -14.00      193.863      435.148       19.453      193.863      100.000   1.000   1.000
  3  22   -14.25      194.471      458.101       20.061      194.471      100.000   1.000   1.000
  3  23   -14.50      195.079      480.558       20.669      195.079      100.000   1.000   1.000
  3  24   -14.75      195.687      501.911       21.277      195.687      100.000   1.000   1.000
  3  25   -15.00      196.536      522.051       21.885      196.536       99.862   1.000   1.000
  3  26   -15.25      209.834      542.553       22.493      209.834       93.098   1.000   1.000
  3  27   -15.50      220.794      564.431       23.101      220.794       88.223   1.000   1.000
  3  28   -15.75      228.804      588.211       23.709      228.804       85.038   1.000   1.000
  3  29   -16.00      241.008      614.398       24.317      241.008       80.488   1.000   1.000
  3  30   -16.25      254.601      642.290       24.924      254.601       75.937   1.000   1.000
  3  31   -16.50      267.906      671.756       25.532      267.906       71.959   1.000   1.000
  3  32   -16.75      280.947      702.930       26.140      280.947       68.448   1.000   1.000
  3  33   -17.00      293.749      735.464       26.748      293.749       65.322   1.000   1.000
  3  34   -17.25      306.335      768.969       27.356      306.335       62.517   1.000   1.000
  3  35   -17.50      318.726      803.467       27.964      318.726       59.984   1.000   1.000
  3  36   -17.75      330.941      838.981       28.572      330.941       57.681   1.000   1.000
  3  37   -18.00      342.997      875.534       29.180      342.997       55.577   1.000   1.000
  3  38   -18.25      354.908      913.149       29.788      354.908       53.645   1.000   1.000
  3  39   -18.50      366.688      951.848       30.396      366.688       51.863   1.000   1.000
  3  40   -18.75      378.349      991.655       31.004      378.349       50.212   1.000   1.000
  3  41   -19.00      389.903     1032.592       31.612      389.903       48.678   1.000   1.000
  3  42   -19.25      401.358     1074.682       32.219      401.358       47.248   1.000   1.000
  3  43   -19.50      412.723     1117.948       32.827      412.723       45.910   1.000   1.000
  3  44   -19.75      424.429     1162.412       33.435      424.429       44.607   1.000   1.000
  3  45   -20.00      438.181     1208.098       34.043      438.181       43.156   1.000   1.000
  3  46   -20.25      451.707     1255.028       34.651      451.707       41.819   1.000   1.000
  3  47   -20.50      465.031     1303.226       35.259      465.031       40.582   1.000   1.000
  3  48   -20.75      478.173     1352.713       35.867      478.173       39.432   1.000   1.000
  3  49   -21.00      489.695     1403.514       36.475      489.695       38.482   1.000   1.000
  3  50   -21.25      500.210     1455.650       37.083      500.210       37.659   1.000   1.000
  3  51   -21.50      510.717     1509.144       37.691      510.717       36.871   1.000   1.000
  3  52   -21.75      521.215     1564.020       38.299      521.215       36.116   1.000   1.000
  3  53   -22.00      531.703     1620.300       38.907      531.703       35.392   1.000   1.000
  3  54   -22.25      542.183     1678.007       39.514      542.183       34.697   1.000   1.000
  3  55   -22.50      552.652     1737.164       40.122      552.652       34.029   1.000   1.000
  3  56   -22.75      563.308     1797.794       40.730      563.308       33.375   1.000   1.000
  3  57   -23.00      576.141     1859.919       41.338      576.141       32.612   1.000   1.000
  3  58   -23.25      588.846     1923.562       41.946      588.846       31.891   1.000   1.000
  3  59   -23.50      601.435     1988.747       42.554      601.435       31.207   1.000   1.000
  3  60   -23.75      613.920     2055.495       43.162      613.920       30.558   1.000   1.000
  3  61   -24.00      626.310     2123.830       43.770      626.310       29.940   1.000   1.000
  4   1    -9.00        7.295       78.548        7.295        7.295        0.000   1.000   1.000
  4   2    -9.25       29.211       86.495        7.903       29.211      100.000   1.000   1.000
  4   3    -9.50       50.076       94.443        8.511       50.076      100.000   1.000   1.000
  4   4    -9.75       75.381      102.391        9.119       75.381      100.000   1.000   1.000
  4   5   -10.00       93.893      110.338        9.727       93.893      100.000   1.000   1.000
  4   6   -10.25      118.286      118.286       10.335      123.703      100.000   1.000   1.000
  4   7   -10.50      126.233      126.233       10.942      147.107      100.000   1.000   1.000
  4   8   -10.75      134.181      134.181       11.550      152.092      100.000   1.000   1.000
  4   9   -11.00      142.129      142.129       12.158      154.588      100.000   1.000   1.000
  4  10   -11.25      150.076      150.076       12.766      156.941      100.000   1.000   1.000
  4  11   -11.50      158.024      158.024       13.374      159.296      100.000   1.000   1.000
  4  12   -11.75      161.625      165.972       13.982      161.625      100.000   1.000   1.000
  4  13   -12.00      163.832      173.919       14.590      163.832      100.000   1.000   1.000
  4  14   -12.25      166.959      181.867       15.198      166.959      100.000   1.000   1.000
  4  15   -12.50      170.080      189.814       15.806      170.080      100.000   1.000   1.000
  4  16   -12.75      172.543      197.762       16.414      172.543      100.000   1.000   1.000
  4  17   -13.00      175.187      205.710       17.022      175.187      100.000   1.000   1.000
  4  18   -13.25      177.749      213.657       17.630      177.749      100.000   1.000   1.000
  4  19   -13.50      181.200      221.605       18.237      181.200      100.000   1.000   1.000
  4  20   -13.75      187.290      229.553       18.845      187.290      100.000   1.000   1.000
  4  21   -14.00      193.863      237.500       19.453      193.863      100.000   1.000   1.000
  4  22   -14.25      194.471      244.996       20.061      194.471      100.000   1.000   1.000
  4  23   -14.50      195.079      251.141       20.669      195.079      100.000   1.000   1.000
  4  24   -14.75      195.687      255.268       21.277      195.687      100.000   1.000   1.000
  4  25   -15.00      196.517      257.102       21.885      196.517       99.873   1.000   1.000
  4  26   -15.25      208.723      259.028       22.493      208.723       93.653   1.000   1.000
  4  27   -15.50      218.688      262.305       23.101      218.688       89.172   1.000   1.000
  4  28   -15.75      225.942      267.602       23.709      225.942       86.242   1.000   1.000
  4  29   -16.00      236.881      275.190       24.317      236.881       82.050   1.000   1.000
  4  30   -16.25      248.926      283.138       24.924      248.926       77.861   1.000   1.000
  4  31   -16.50      260.583      291.086       25.532      260.583       74.201   1.000   1.000
  4  32   -16.75      271.882      299.033       26.140      271.882       70.973   1.000   1.000
  4  33   -17.00      282.855      306.981       26.748      282.855       68.100   1.000   1.000
  4  34   -17.25      293.531      314.929       27.356      293.531       65.524   1.000   1.000
  4  35   -17.50      303.938      322.876       27.964      303.938       63.198   1.000   1.000
  4  36   -17.75      314.101      330.824       28.572      314.101       61.083   1.000   1.000
  4  37   -18.00      324.042      338.771       29.180      324.042       59.150   1.000   1.000
  4  38   -18.25      333.783      346.719       29.788      333.783       57.373   1.000   1.000
  4  39   -18.50      343.342      354.667       30.396      343.342       55.732   1.000   1.000
  4  40   -18.75      352.736      362.614       31.004      352.736       54.210   1.000   1.000
  4  41   -19.00      361.982      370.562       31.612      361.982       52.792   1.000   1.000
  4  42   -19.25      371.093      378.510       32.219      371.093       51.468   1.000   1.000
  4  43   -19.50      380.082      386.457       32.827      380.082       50.225   1.000   1.000
  4  44   -19.75      389.287      394.405       33.435      389.287       49.012   1.000   1.000
  4  45   -20.00      399.982      402.352       34.043      399.982       47.661   1.000   1.000
  4  46   -20.25      410.300      410.300       34.651      410.397       46.417   1.000   1.000
  4  47   -20.50      418.248      418.248       35.259      420.558       45.266   1.000   1.000
  4  48   -20.75      426.195      426.195       35.867      430.491       44.196   1.000   1.000
  4  49   -21.00      434.143      434.143       36.475      439.158       43.312   1.000   1.000
  4  50   -21.25      442.091      442.091       37.083      447.066       42.541   1.000   1.000
  4  51   -21.50      450.038      450.038       37.691      454.960       41.798   1.000   1.000
  4  52   -21.75      457.986      457.986       38.299      462.842       41.082   1.000   1.000
  4  53   -22.00      465.933      465.933       38.907      470.712       40.391   1.000   1.000
  4  54   -22.25      473.881      473.881       39.514      478.572       39.724   1.000   1.000
  4  55   -22.50      481.829      481.829       40.122      486.422       39.079   1.000   1.000
  4  56   -22.75      489.776      489.776       40.730      494.408       38.444   1.000   1.000
  4  57   -23.00      497.724      497.724       41.338      503.957       37.701   1.000   1.000
  4  58   -23.25      505.672      505.672       41.946      513.359       36.997   1.000   1.000
  4  59   -23.50      513.619      513.619       42.554      522.629       36.330   1.000   1.000
  4  60   -23.75      521.567      521.567       43.162      531.778       35.695   1.000   1.000
  4  61   -24.00      529.514      529.514       43.770      540.818       35.089   1.000   1.000
[END OF DATA]
[END OF TABLE]
[END OF RESULTS BASED ON KSI3]

[RESULTS BASED ON KSI4]
[TABLE]
DataCount=244
[COLUMN INDICATION]
ResultIndex
DepthIndex
Depth
MinForce
Kluit
PileWeight
FrTension
MaxClayPercentage
F1
F1Average
[END OF COLUMN INDICATION]
[DATA]
  1   1    -9.00        7.295       94.586        7.295        7.295        0.000   1.000   1.000
  1   2    -9.25       34.538      112.116        7.903       34.538      100.000   1.000   1.000
  1   3    -9.50       60.467      131.667        8.511       60.467      100.000   1.000   1.000
  1   4    -9.75       91.947      153.378        9.119       91.947      100.000   1.000   1.000
  1   5   -10.00      114.934      177.384        9.727      114.934      100.000   1.000   1.000
  1   6   -10.25      152.045      203.824       10.335      152.045      100.000   1.000   1.000
  1   7   -10.50      181.148      232.834       10.942      181.148      100.000   1.000   1.000
  1   8   -10.75      187.227      260.829       11.550      187.227      100.000   1.000   1.000
  1   9   -11.00      190.195      289.451       12.158      190.195      100.000   1.000   1.000
  1  10   -11.25      192.984      320.060       12.766      192.984      100.000   1.000   1.000
  1  11   -11.50      195.777      352.748       13.374      195.777      100.000   1.000   1.000
  1  12   -11.75      198.536      387.605       13.982      198.536      100.000   1.000   1.000
  1  13   -12.00      201.142      424.724       14.590      201.142      100.000   1.000   1.000
  1  14   -12.25      204.899      464.195       15.198      204.899      100.000   1.000   1.000
  1  15   -12.50      208.648      506.111       15.806      208.648      100.000   1.000   1.000
  1  16   -12.75      211.576      550.561       16.414      211.576      100.000   1.000   1.000
  1  17   -13.00      214.729      597.638       17.022      214.729      100.000   1.000   1.000
  1  18   -13.25      217.778      647.433       17.630      217.778      100.000   1.000   1.000
  1  19   -13.50      221.941      700.038       18.237      221.941      100.000   1.000   1.000
  1  20   -13.75      229.401      755.542       18.845      229.401      100.000   1.000   1.000
  1  21   -14.00      237.466      814.039       19.453      237.466      100.000   1.000   1.000
  1  22   -14.25      238.074      875.240       20.061      238.074      100.000   1.000   1.000
  1  23   -14.50      238.681      938.509       20.669      238.681      100.000   1.000   1.000
  1  24   -14.75      239.289     1003.419       21.277      239.289      100.000   1.000   1.000
  1  25   -15.00      240.201     1069.873       21.885      240.201       99.861   1.000   1.000
  1  26   -15.25      256.852     1138.988       22.493      256.852       93.025   1.000   1.000
  1  27   -15.50      270.683     1211.574       23.101      270.683       88.057   1.000   1.000
  1  28   -15.75      280.821     1288.057       23.709      280.821       84.793   1.000   1.000
  1  29   -16.00      296.849     1369.010       24.317      296.849       79.995   1.000   1.000
  1  30   -16.25      315.087     1454.218       24.924      315.087       75.135   1.000   1.000
  1  31   -16.50      333.227     1543.704       25.532      333.227       70.854   1.000   1.000
  1  32   -16.75      351.248     1637.672       26.140      351.248       67.058   1.000   1.000
  1  33   -17.00      369.154     1735.844       26.748      369.154       63.671   1.000   1.000
  1  34   -17.25      386.948     1837.897       27.356      386.948       60.628   1.000   1.000
  1  35   -17.50      404.639     1943.924       27.964      404.639       57.878   1.000   1.000
  1  36   -17.75      422.234     2054.014       28.572      422.234       55.381   1.000   1.000
  1  37   -18.00      439.743     2168.260       29.180      439.743       53.101   1.000   1.000
  1  38   -18.25      457.172     2286.753       29.788      457.172       51.011   1.000   1.000
  1  39   -18.50      474.531     2409.584       30.396      474.531       49.087   1.000   1.000
  1  40   -18.75      491.824     2536.844       31.004      491.824       47.310   1.000   1.000
  1  41   -19.00      509.059     2668.625       31.612      509.059       45.662   1.000   1.000
  1  42   -19.25      526.240     2805.018       32.219      526.240       44.130   1.000   1.000
  1  43   -19.50      543.373     2946.115       32.827      543.373       42.702   1.000   1.000
  1  44   -19.75      561.117     3092.007       33.435      561.117       41.315   1.000   1.000
  1  45   -20.00      582.163     3242.784       34.043      582.163       39.775   1.000   1.000
  1  46   -20.25      603.022     3398.539       34.651      603.022       38.357   1.000   1.000
  1  47   -20.50      623.722     3559.363       35.259      623.722       37.048   1.000   1.000
  1  48   -20.75      644.284     3725.347       35.867      644.284       35.833   1.000   1.000
  1  49   -21.00      662.376     3896.582       36.475      662.376       34.832   1.000   1.000
  1  50   -21.25      678.901     4073.160       37.083      678.901       33.968   1.000   1.000
  1  51   -21.50      695.449     4255.172       37.691      695.449       33.145   1.000   1.000
  1  52   -21.75      712.013     4442.710       38.299      712.013       32.360   1.000   1.000
  1  53   -22.00      728.589     4635.864       38.907      728.589       31.611   1.000   1.000
  1  54   -22.25      745.173     4834.726       39.514      745.173       30.895   1.000   1.000
  1  55   -22.50      761.762     5039.387       40.122      761.762       30.211   1.000   1.000
  1  56   -22.75      778.673     5249.939       40.730      778.673       29.543   1.000   1.000
  1  57   -23.00      799.179     5466.473       41.338      799.179       28.768   1.000   1.000
  1  58   -23.25      819.567     5689.080       41.946      819.567       28.036   1.000   1.000
  1  59   -23.50      839.851     5917.852       42.554      839.851       27.344   1.000   1.000
  1  60   -23.75      860.045     6152.880       43.162      860.045       26.688   1.000   1.000
  1  61   -24.00      880.160     6394.255       43.770      880.160       26.066   1.000   1.000
  2   1    -9.00        7.295       85.055        7.295        7.295        0.000   1.000   1.000
  2   2    -9.25       34.538       97.625        7.903       34.538      100.000   1.000   1.000
  2   3    -9.50       60.467      111.207        8.511       60.467      100.000   1.000   1.000
  2   4    -9.75       91.947      125.868        9.119       91.947      100.000   1.000   1.000
  2   5   -10.00      114.934      141.677        9.727      114.934      100.000   1.000   1.000
  2   6   -10.25      152.045      158.702       10.335      152.045      100.000   1.000   1.000
  2   7   -10.50      177.012      177.012       10.942      181.148      100.000   1.000   1.000
  2   8   -10.75      187.227      192.956       11.550      187.227      100.000   1.000   1.000
  2   9   -11.00      190.195      208.103       12.158      190.195      100.000   1.000   1.000
  2  10   -11.25      192.984      223.746       12.766      192.984      100.000   1.000   1.000
  2  11   -11.50      195.777      239.910       13.374      195.777      100.000   1.000   1.000
  2  12   -11.75      198.536      256.616       13.982      198.536      100.000   1.000   1.000
  2  13   -12.00      201.142      273.887       14.590      201.142      100.000   1.000   1.000
  2  14   -12.25      204.899      291.746       15.198      204.899      100.000   1.000   1.000
  2  15   -12.50      208.648      310.217       15.806      208.648      100.000   1.000   1.000
  2  16   -12.75      211.576      329.321       16.414      211.576      100.000   1.000   1.000
  2  17   -13.00      214.729      349.082       17.022      214.729      100.000   1.000   1.000
  2  18   -13.25      217.778      369.522       17.630      217.778      100.000   1.000   1.000
  2  19   -13.50      221.941      390.665       18.237      221.941      100.000   1.000   1.000
  2  20   -13.75      229.401      412.533       18.845      229.401      100.000   1.000   1.000
  2  21   -14.00      237.466      435.148       19.453      237.466      100.000   1.000   1.000
  2  22   -14.25      238.074      458.101       20.061      238.074      100.000   1.000   1.000
  2  23   -14.50      238.681      480.558       20.669      238.681      100.000   1.000   1.000
  2  24   -14.75      239.289      501.911       21.277      239.289      100.000   1.000   1.000
  2  25   -15.00      240.116      522.051       21.885      240.116       99.900   1.000   1.000
  2  26   -15.25      252.200      542.553       22.493      252.200       94.909   1.000   1.000
  2  27   -15.50      262.169      564.431       23.101      262.169       91.193   1.000   1.000
  2  28   -15.75      269.557      588.211       23.709      269.557       88.678   1.000   1.000
  2  29   -16.00      281.406      614.398       24.317      281.406       84.800   1.000   1.000
  2  30   -16.25      294.868      642.290       24.924      294.868       80.762   1.000   1.000
  2  31   -16.50      308.199      671.756       25.532      308.199       77.127   1.000   1.000
  2  32   -16.75      321.374      702.930       26.140      321.374       73.844   1.000   1.000
  2  33   -17.00      334.393      735.464       26.748      334.393       70.865   1.000   1.000
  2  34   -17.25      347.263      768.969       27.356      347.263       68.149   1.000   1.000
  2  35   -17.50      359.994      803.467       27.964      359.994       65.660   1.000   1.000
  2  36   -17.75      372.599      838.981       28.572      372.599       63.371   1.000   1.000
  2  37   -18.00      385.090      875.534       29.180      385.090       61.255   1.000   1.000
  2  38   -18.25      397.476      913.149       29.788      397.476       59.293   1.000   1.000
  2  39   -18.50      409.768      951.848       30.396      409.768       57.467   1.000   1.000
  2  40   -18.75      421.977      991.655       31.004      421.977       55.761   1.000   1.000
  2  41   -19.00      434.109     1032.592       31.612      434.109       54.165   1.000   1.000
  2  42   -19.25      446.174     1074.682       32.219      446.174       52.666   1.000   1.000
  2  43   -19.50      458.177     1117.948       32.827      458.177       51.255   1.000   1.000
  2  44   -19.75      470.573     1162.412       33.435      470.573       49.873   1.000   1.000
  2  45   -20.00      485.129     1208.098       34.043      485.129       48.331   1.000   1.000
  2  46   -20.25      499.424     1255.028       34.651      499.424       46.907   1.000   1.000
  2  47   -20.50      513.498     1303.226       35.259      513.498       45.587   1.000   1.000
  2  48   -20.75      527.384     1352.713       35.867      527.384       44.355   1.000   1.000
  2  49   -21.00      539.575     1403.514       36.475      539.575       43.334   1.000   1.000
  2  50   -21.25      550.756     1455.650       37.083      550.756       42.442   1.000   1.000
  2  51   -21.50      561.979     1509.144       37.691      561.979       41.583   1.000   1.000
  2  52   -21.75      573.233     1564.020       38.299      573.233       40.755   1.000   1.000
  2  53   -22.00      584.512     1620.300       38.907      584.512       39.958   1.000   1.000
  2  54   -22.25      595.808     1678.007       39.514      595.808       39.190   1.000   1.000
  2  55   -22.50      607.118     1737.164       40.122      607.118       38.450   1.000   1.000
  2  56   -22.75      618.651     1797.794       40.730      618.651       37.724   1.000   1.000
  2  57   -23.00      632.539     1859.919       41.338      632.539       36.876   1.000   1.000
  2  58   -23.25      646.260     1923.562       41.946      646.260       36.076   1.000   1.000
  2  59   -23.50      659.838     1988.747       42.554      659.838       35.318   1.000   1.000
  2  60   -23.75      673.292     2055.495       43.162      673.292       34.598   1.000   1.000
  2  61   -24.00      686.639     2123.830       43.770      686.639       33.912   1.000   1.000
  3   1    -9.00        7.295       85.055        7.295        7.295        0.000   1.000   1.000
  3   2    -9.25       34.538       97.625        7.903       34.538      100.000   1.000   1.000
  3   3    -9.50       60.467      111.207        8.511       60.467      100.000   1.000   1.000
  3   4    -9.75       91.947      125.868        9.119       91.947      100.000   1.000   1.000
  3   5   -10.00      114.934      141.677        9.727      114.934      100.000   1.000   1.000
  3   6   -10.25      152.045      158.702       10.335      152.045      100.000   1.000   1.000
  3   7   -10.50      177.012      177.012       10.942      181.148      100.000   1.000   1.000
  3   8   -10.75      187.227      192.956       11.550      187.227      100.000   1.000   1.000
  3   9   -11.00      190.195      208.103       12.158      190.195      100.000   1.000   1.000
  3  10   -11.25      192.984      223.746       12.766      192.984      100.000   1.000   1.000
  3  11   -11.50      195.777      239.910       13.374      195.777      100.000   1.000   1.000
  3  12   -11.75      198.536      256.616       13.982      198.536      100.000   1.000   1.000
  3  13   -12.00      201.142      273.887       14.590      201.142      100.000   1.000   1.000
  3  14   -12.25      204.899      291.746       15.198      204.899      100.000   1.000   1.000
  3  15   -12.50      208.648      310.217       15.806      208.648      100.000   1.000   1.000
  3  16   -12.75      211.576      329.321       16.414      211.576      100.000   1.000   1.000
  3  17   -13.00      214.729      349.082       17.022      214.729      100.000   1.000   1.000
  3  18   -13.25      217.778      369.522       17.630      217.778      100.000   1.000   1.000
  3  19   -13.50      221.941      390.665       18.237      221.941      100.000   1.000   1.000
  3  20   -13.75      229.401      412.533       18.845      229.401      100.000   1.000   1.000
  3  21   -14.00      237.466      435.148       19.453      237.466      100.000   1.000   1.000
  3  22   -14.25      238.074      458.101       20.061      238.074      100.000   1.000   1.000
  3  23   -14.50      238.681      480.558       20.669      238.681      100.000   1.000   1.000
  3  24   -14.75      239.289      501.911       21.277      239.289      100.000   1.000   1.000
  3  25   -15.00      240.116      522.051       21.885      240.116       99.900   1.000   1.000
  3  26   -15.25      252.200      542.553       22.493      252.200       94.909   1.000   1.000
  3  27   -15.50      262.169      564.431       23.101      262.169       91.193   1.000   1.000
  3  28   -15.75      269.557      588.211       23.709      269.557       88.678   1.000   1.000
  3  29   -16.00      281.406      614.398       24.317      281.406       84.800   1.000   1.000
  3  30   -16.25      294.868      642.290       24.924      294.868       80.762   1.000   1.000
  3  31   -16.50      308.199      671.756       25.532      308.199       77.127   1.000   1.000
  3  32   -16.75      321.374      702.930       26.140      321.374       73.844   1.000   1.000
  3  33   -17.00      334.393      735.464       26.748      334.393       70.865   1.000   1.000
  3  34   -17.25      347.263      768.969       27.356      347.263       68.149   1.000   1.000
  3  35   -17.50      359.994      803.467       27.964      359.994       65.660   1.000   1.000
  3  36   -17.75      372.599      838.981       28.572      372.599       63.371   1.000   1.000
  3  37   -18.00      385.090      875.534       29.180      385.090       61.255   1.000   1.000
  3  38   -18.25      397.476      913.149       29.788      397.476       59.293   1.000   1.000
  3  39   -18.50      409.768      951.848       30.396      409.768       57.467   1.000   1.000
  3  40   -18.75      421.977      991.655       31.004      421.977       55.761   1.000   1.000
  3  41   -19.00      434.109     1032.592       31.612      434.109       54.165   1.000   1.000
  3  42   -19.25      446.174     1074.682       32.219      446.174       52.666   1.000   1.000
  3  43   -19.50      458.177     1117.948       32.827      458.177       51.255   1.000   1.000
  3  44   -19.75      470.573     1162.412       33.435      470.573       49.873   1.000   1.000
  3  45   -20.00      485.129     1208.098       34.043      485.129       48.331   1.000   1.000
  3  46   -20.25      499.424     1255.028       34.651      499.424       46.907   1.000   1.000
  3  47   -20.50      513.498     1303.226       35.259      513.498       45.587   1.000   1.000
  3  48   -20.75      527.384     1352.713       35.867      527.384       44.355   1.000   1.000
  3  49   -21.00      539.575     1403.514       36.475      539.575       43.334   1.000   1.000
  3  50   -21.25      550.756     1455.650       37.083      550.756       42.442   1.000   1.000
  3  51   -21.50      561.979     1509.144       37.691      561.979       41.583   1.000   1.000
  3  52   -21.75      573.233     1564.020       38.299      573.233       40.755   1.000   1.000
  3  53   -22.00      584.512     1620.300       38.907      584.512       39.958   1.000   1.000
  3  54   -22.25      595.808     1678.007       39.514      595.808       39.190   1.000   1.000
  3  55   -22.50      607.118     1737.164       40.122      607.118       38.450   1.000   1.000
  3  56   -22.75      618.651     1797.794       40.730      618.651       37.724   1.000   1.000
  3  57   -23.00      632.539     1859.919       41.338      632.539       36.876   1.000   1.000
  3  58   -23.25      646.260     1923.562       41.946      646.260       36.076   1.000   1.000
  3  59   -23.50      659.838     1988.747       42.554      659.838       35.318   1.000   1.000
  3  60   -23.75      673.292     2055.495       43.162      673.292       34.598   1.000   1.000
  3  61   -24.00      686.639     2123.830       43.770      686.639       33.912   1.000   1.000
  4   1    -9.00        7.295       78.548        7.295        7.295        0.000   1.000   1.000
  4   2    -9.25       34.538       86.495        7.903       34.538      100.000   1.000   1.000
  4   3    -9.50       60.467       94.443        8.511       60.467      100.000   1.000   1.000
  4   4    -9.75       91.947      102.391        9.119       91.947      100.000   1.000   1.000
  4   5   -10.00      110.338      110.338        9.727      114.934      100.000   1.000   1.000
  4   6   -10.25      118.286      118.286       10.335      152.045      100.000   1.000   1.000
  4   7   -10.50      126.233      126.233       10.942      181.148      100.000   1.000   1.000
  4   8   -10.75      134.181      134.181       11.550      187.227      100.000   1.000   1.000
  4   9   -11.00      142.129      142.129       12.158      190.195      100.000   1.000   1.000
  4  10   -11.25      150.076      150.076       12.766      192.984      100.000   1.000   1.000
  4  11   -11.50      158.024      158.024       13.374      195.777      100.000   1.000   1.000
  4  12   -11.75      165.972      165.972       13.982      198.536      100.000   1.000   1.000
  4  13   -12.00      173.919      173.919       14.590      201.142      100.000   1.000   1.000
  4  14   -12.25      181.867      181.867       15.198      204.899      100.000   1.000   1.000
  4  15   -12.50      189.814      189.814       15.806      208.648      100.000   1.000   1.000
  4  16   -12.75      197.762      197.762       16.414      211.576      100.000   1.000   1.000
  4  17   -13.00      205.710      205.710       17.022      214.729      100.000   1.000   1.000
  4  18   -13.25      213.657      213.657       17.630      217.778      100.000   1.000   1.000
  4  19   -13.50      221.605      221.605       18.237      221.941      100.000   1.000   1.000
  4  20   -13.75      229.401      229.553       18.845      229.401      100.000   1.000   1.000
  4  21   -14.00      237.466      237.500       19.453      237.466      100.000   1.000   1.000
  4  22   -14.25      238.074      244.996       20.061      238.074      100.000   1.000   1.000
  4  23   -14.50      238.681      251.141       20.669      238.681      100.000   1.000   1.000
  4  24   -14.75      239.289      255.268       21.277      239.289      100.000   1.000   1.000
  4  25   -15.00      240.092      257.102       21.885      240.092       99.911   1.000   1.000
  4  26   -15.25      250.825      259.028       22.493      250.825       95.480   1.000   1.000
  4  27   -15.50      259.577      262.305       23.101      259.577       92.192   1.000   1.000
  4  28   -15.75      266.068      267.602       23.709      266.068       89.954   1.000   1.000
  4  29   -16.00      275.190      275.190       24.317      275.884       86.661   1.000   1.000
  4  30   -16.25      283.138      283.138       24.924      286.641       83.301   1.000   1.000
  4  31   -16.50      291.086      291.086       25.532      297.009       80.306   1.000   1.000
  4  32   -16.75      299.033      299.033       26.140      307.037       77.613   1.000   1.000
  4  33   -17.00      306.981      306.981       26.748      316.773       75.170   1.000   1.000
  4  34   -17.25      314.929      314.929       27.356      326.259       72.938   1.000   1.000
  4  35   -17.50      322.876      322.876       27.964      335.530       70.883   1.000   1.000
  4  36   -17.75      330.824      330.824       28.572      344.618       68.981   1.000   1.000
  4  37   -18.00      338.771      338.771       29.180      353.550       67.211   1.000   1.000
  4  38   -18.25      346.719      346.719       29.788      362.349       65.556   1.000   1.000
  4  39   -18.50      354.667      354.667       30.396      371.035       64.001   1.000   1.000
  4  40   -18.75      362.614      362.614       31.004      379.625       62.536   1.000   1.000
  4  41   -19.00      370.562      370.562       31.612      388.134       61.150   1.000   1.000
  4  42   -19.25      378.510      378.510       32.219      396.572       59.835   1.000   1.000
  4  43   -19.50      386.457      386.457       32.827      404.952       58.586   1.000   1.000
  4  44   -19.75      394.405      394.405       33.435      413.583       57.349   1.000   1.000
  4  45   -20.00      402.352      402.352       34.043      423.592       55.965   1.000   1.000
  4  46   -20.25      410.300      410.300       34.651      433.310       54.686   1.000   1.000
  4  47   -20.50      418.248      418.248       35.259      442.781       53.497   1.000   1.000
  4  48   -20.75      426.195      426.195       35.867      452.043       52.385   1.000   1.000
  4  49   -21.00      434.143      434.143       36.475      460.159       51.456   1.000   1.000
  4  50   -21.25      442.091      442.091       37.083      467.656       50.633   1.000   1.000
  4  51   -21.50      450.038      450.038       37.691      475.220       49.828   1.000   1.000
  4  52   -21.75      457.986      457.986       38.299      482.840       49.042   1.000   1.000
  4  53   -22.00      465.933      465.933       38.907      490.508       48.275   1.000   1.000
  4  54   -22.25      473.881      473.881       39.514      498.217       47.528   1.000   1.000
  4  55   -22.50      481.829      481.829       40.122      505.961       46.800   1.000   1.000
  4  56   -22.75      489.776      489.776       40.730      513.877       46.077   1.000   1.000
  4  57   -23.00      497.724      497.724       41.338      523.335       45.231   1.000   1.000
  4  58   -23.25      505.672      505.672       41.946      532.615       44.432   1.000   1.000
  4  59   -23.50      513.619      513.619       42.554      541.743       43.673   1.000   1.000
  4  60   -23.75      521.567      521.567       43.162      550.739       42.952   1.000   1.000
  4  61   -24.00      529.514      529.514       43.770      559.622       42.263   1.000   1.000
[END OF DATA]
[END OF TABLE]
[END OF RESULTS BASED ON KSI4]

[RESULT INFO OVERALL]
[TABLE]
DataCount=4
[COLUMN INDICATION]
ResultIndex
PileTypeIndex
PileGroupIndex
NumberofDepths
PileTypeName
[END OF COLUMN INDICATION]
[DATA]
  1   1   1  61 'Rect 450x450'
  2   1   2  61 'Rect 450x450'
  3   1   3  61 'Rect 450x450'
  4   1   4  61 'Rect 450x450'
[END OF DATA]
[END OF TABLE]
[END OF RESULT INFO OVERALL]

[OVERALL RESULTS]
[TABLE]
DataCount=244
[COLUMN INDICATION]
ResultIndex
DepthIndex
Depth
RtDMin
RtDAverage
RtD
F1
F1Average
MaxClayPercentage
KsiUsed
[END OF COLUMN INDICATION]
[DATA]
  1   1    -9.00        7.295        7.295        7.295   1.000   1.000   0.00 Ksi4
  1   2    -9.25       34.538       29.211       29.211   1.000   1.000 100.00 Ksi3
  1   3    -9.50       60.467       50.076       50.076   1.000   1.000 100.00 Ksi3
  1   4    -9.75       91.947       75.381       75.381   1.000   1.000 100.00 Ksi3
  1   5   -10.00      114.934       93.893       93.893   1.000   1.000 100.00 Ksi3
  1   6   -10.25      152.045      123.703      123.703   1.000   1.000 100.00 Ksi3
  1   7   -10.50      181.148      147.107      147.107   1.000   1.000 100.00 Ksi3
  1   8   -10.75      187.227      152.092      152.092   1.000   1.000 100.00 Ksi3
  1   9   -11.00      190.195      154.588      154.588   1.000   1.000 100.00 Ksi3
  1  10   -11.25      192.984      156.941      156.941   1.000   1.000 100.00 Ksi3
  1  11   -11.50      195.777      159.296      159.296   1.000   1.000 100.00 Ksi3
  1  12   -11.75      198.536      161.625      161.625   1.000   1.000 100.00 Ksi3
  1  13   -12.00      201.142      163.832      163.832   1.000   1.000 100.00 Ksi3
  1  14   -12.25      204.899      166.959      166.959   1.000   1.000 100.00 Ksi3
  1  15   -12.50      208.648      170.080      170.080   1.000   1.000 100.00 Ksi3
  1  16   -12.75      211.576      172.543      172.543   1.000   1.000 100.00 Ksi3
  1  17   -13.00      214.729      175.187      175.187   1.000   1.000 100.00 Ksi3
  1  18   -13.25      217.778      177.749      177.749   1.000   1.000 100.00 Ksi3
  1  19   -13.50      221.941      181.200      181.200   1.000   1.000 100.00 Ksi3
  1  20   -13.75      229.401      187.290      187.290   1.000   1.000 100.00 Ksi3
  1  21   -14.00      237.466      193.863      193.863   1.000   1.000 100.00 Ksi3
  1  22   -14.25      238.074      194.471      194.471   1.000   1.000 100.00 Ksi3
  1  23   -14.50      238.681      195.079      195.079   1.000   1.000 100.00 Ksi3
  1  24   -14.75      239.289      195.687      195.687   1.000   1.000 100.00 Ksi3
  1  25   -15.00      240.201      196.582      196.582   1.000   1.000  99.84 Ksi3
  1  26   -15.25      256.852      212.399      212.399   1.000   1.000  91.84 Ksi3
  1  27   -15.50      270.683      225.525      225.525   1.000   1.000  86.16 Ksi3
  1  28   -15.75      280.821      235.099      235.099   1.000   1.000  82.51 Ksi3
  1  29   -16.00      296.849      249.816      249.816   1.000   1.000  77.34 Ksi3
  1  30   -16.25      315.087      266.373      266.373   1.000   1.000  72.23 Ksi3
  1  31   -16.50      333.227      282.732      282.732   1.000   1.000  67.81 Ksi3
  1  32   -16.75      351.248      298.906      298.906   1.000   1.000  63.94 Ksi3
  1  33   -17.00      369.154      314.913      314.913   1.000   1.000  60.52 Ksi3
  1  34   -17.25      386.948      330.768      330.768   1.000   1.000  57.48 Ksi3
  1  35   -17.50      404.639      346.485      346.485   1.000   1.000  54.76 Ksi3
  1  36   -17.75      422.234      362.078      362.078   1.000   1.000  52.30 Ksi3
  1  37   -18.00      439.743      377.558      377.558   1.000   1.000  50.06 Ksi3
  1  38   -18.25      457.172      392.935      392.935   1.000   1.000  48.03 Ksi3
  1  39   -18.50      474.531      408.219      408.219   1.000   1.000  46.16 Ksi3
  1  40   -18.75      491.824      423.418      423.418   1.000   1.000  44.45 Ksi3
  1  41   -19.00      509.059      438.540      438.540   1.000   1.000  42.86 Ksi3
  1  42   -19.25      526.240      453.591      453.591   1.000   1.000  41.39 Ksi3
  1  43   -19.50      543.373      468.577      468.577   1.000   1.000  40.03 Ksi3
  1  44   -19.75      561.117      484.073      484.073   1.000   1.000  38.70 Ksi3
  1  45   -20.00      582.163      502.438      502.438   1.000   1.000  37.24 Ksi3
  1  46   -20.25      603.022      520.643      520.643   1.000   1.000  35.89 Ksi3
  1  47   -20.50      623.722      538.706      538.706   1.000   1.000  34.64 Ksi3
  1  48   -20.75      644.284      556.639      556.639   1.000   1.000  33.49 Ksi3
  1  49   -21.00      662.376      572.411      572.411   1.000   1.000  32.54 Ksi3
  1  50   -21.25      678.901      586.790      586.790   1.000   1.000  31.73 Ksi3
  1  51   -21.50      695.449      601.160      601.160   1.000   1.000  30.95 Ksi3
  1  52   -21.75      712.013      615.522      615.522   1.000   1.000  30.22 Ksi3
  1  53   -22.00      728.589      629.874      629.874   1.000   1.000  29.51 Ksi3
  1  54   -22.25      745.173      644.217      644.217   1.000   1.000  28.84 Ksi3
  1  55   -22.50      761.762      658.550      658.550   1.000   1.000  28.20 Ksi3
  1  56   -22.75      778.673      673.149      673.149   1.000   1.000  27.58 Ksi3
  1  57   -23.00      799.179      690.837      690.837   1.000   1.000  26.85 Ksi3
  1  58   -23.25      819.567      708.435      708.435   1.000   1.000  26.17 Ksi3
  1  59   -23.50      839.851      725.950      725.950   1.000   1.000  25.52 Ksi3
  1  60   -23.75      860.045      743.391      743.391   1.000   1.000  24.91 Ksi3
  1  61   -24.00      880.160      760.763      760.763   1.000   1.000  24.33 Ksi3
  2   1    -9.00        7.295        7.295        7.295   1.000   1.000   0.00 Ksi4
  2   2    -9.25       34.538       29.211       29.211   1.000   1.000 100.00 Ksi3
  2   3    -9.50       60.467       50.076       50.076   1.000   1.000 100.00 Ksi3
  2   4    -9.75       91.947       75.381       75.381   1.000   1.000 100.00 Ksi3
  2   5   -10.00      114.934       93.893       93.893   1.000   1.000 100.00 Ksi3
  2   6   -10.25      152.045      123.703      123.703   1.000   1.000 100.00 Ksi3
  2   7   -10.50      177.012      147.107      147.107   1.000   1.000 100.00 Ksi3
  2   8   -10.75      187.227      152.092      152.092   1.000   1.000 100.00 Ksi3
  2   9   -11.00      190.195      154.588      154.588   1.000   1.000 100.00 Ksi3
  2  10   -11.25      192.984      156.941      156.941   1.000   1.000 100.00 Ksi3
  2  11   -11.50      195.777      159.296      159.296   1.000   1.000 100.00 Ksi3
  2  12   -11.75      198.536      161.625      161.625   1.000   1.000 100.00 Ksi3
  2  13   -12.00      201.142      163.832      163.832   1.000   1.000 100.00 Ksi3
  2  14   -12.25      204.899      166.959      166.959   1.000   1.000 100.00 Ksi3
  2  15   -12.50      208.648      170.080      170.080   1.000   1.000 100.00 Ksi3
  2  16   -12.75      211.576      172.543      172.543   1.000   1.000 100.00 Ksi3
  2  17   -13.00      214.729      175.187      175.187   1.000   1.000 100.00 Ksi3
  2  18   -13.25      217.778      177.749      177.749   1.000   1.000 100.00 Ksi3
  2  19   -13.50      221.941      181.200      181.200   1.000   1.000 100.00 Ksi3
  2  20   -13.75      229.401      187.290      187.290   1.000   1.000 100.00 Ksi3
  2  21   -14.00      237.466      193.863      193.863   1.000   1.000 100.00 Ksi3
  2  22   -14.25      238.074      194.471      194.471   1.000   1.000 100.00 Ksi3
  2  23   -14.50      238.681      195.079      195.079   1.000   1.000 100.00 Ksi3
  2  24   -14.75      239.289      195.687      195.687   1.000   1.000 100.00 Ksi3
  2  25   -15.00      240.116      196.536      196.536   1.000   1.000  99.86 Ksi3
  2  26   -15.25      252.200      209.834      209.834   1.000   1.000  93.10 Ksi3
  2  27   -15.50      262.169      220.794      220.794   1.000   1.000  88.22 Ksi3
  2  28   -15.75      269.557      228.804      228.804   1.000   1.000  85.04 Ksi3
  2  29   -16.00      281.406      241.008      241.008   1.000   1.000  80.49 Ksi3
  2  30   -16.25      294.868      254.601      254.601   1.000   1.000  75.94 Ksi3
  2  31   -16.50      308.199      267.906      267.906   1.000   1.000  71.96 Ksi3
  2  32   -16.75      321.374      280.947      280.947   1.000   1.000  68.45 Ksi3
  2  33   -17.00      334.393      293.749      293.749   1.000   1.000  65.32 Ksi3
  2  34   -17.25      347.263      306.335      306.335   1.000   1.000  62.52 Ksi3
  2  35   -17.50      359.994      318.726      318.726   1.000   1.000  59.98 Ksi3
  2  36   -17.75      372.599      330.941      330.941   1.000   1.000  57.68 Ksi3
  2  37   -18.00      385.090      342.997      342.997   1.000   1.000  55.58 Ksi3
  2  38   -18.25      397.476      354.908      354.908   1.000   1.000  53.64 Ksi3
  2  39   -18.50      409.768      366.688      366.688   1.000   1.000  51.86 Ksi3
  2  40   -18.75      421.977      378.349      378.349   1.000   1.000  50.21 Ksi3
  2  41   -19.00      434.109      389.903      389.903   1.000   1.000  48.68 Ksi3
  2  42   -19.25      446.174      401.358      401.358   1.000   1.000  47.25 Ksi3
  2  43   -19.50      458.177      412.723      412.723   1.000   1.000  45.91 Ksi3
  2  44   -19.75      470.573      424.429      424.429   1.000   1.000  44.61 Ksi3
  2  45   -20.00      485.129      438.181      438.181   1.000   1.000  43.16 Ksi3
  2  46   -20.25      499.424      451.707      451.707   1.000   1.000  41.82 Ksi3
  2  47   -20.50      513.498      465.031      465.031   1.000   1.000  40.58 Ksi3
  2  48   -20.75      527.384      478.173      478.173   1.000   1.000  39.43 Ksi3
  2  49   -21.00      539.575      489.695      489.695   1.000   1.000  38.48 Ksi3
  2  50   -21.25      550.756      500.210      500.210   1.000   1.000  37.66 Ksi3
  2  51   -21.50      561.979      510.717      510.717   1.000   1.000  36.87 Ksi3
  2  52   -21.75      573.233      521.215      521.215   1.000   1.000  36.12 Ksi3
  2  53   -22.00      584.512      531.703      531.703   1.000   1.000  35.39 Ksi3
  2  54   -22.25      595.808      542.183      542.183   1.000   1.000  34.70 Ksi3
  2  55   -22.50      607.118      552.652      552.652   1.000   1.000  34.03 Ksi3
  2  56   -22.75      618.651      563.308      563.308   1.000   1.000  33.37 Ksi3
  2  57   -23.00      632.539      576.141      576.141   1.000   1.000  32.61 Ksi3
  2  58   -23.25      646.260      588.846      588.846   1.000   1.000  31.89 Ksi3
  2  59   -23.50      659.838      601.435      601.435   1.000   1.000  31.21 Ksi3
  2  60   -23.75      673.292      613.920      613.920   1.000   1.000  30.56 Ksi3
  2  61   -24.00      686.639      626.310      626.310   1.000   1.000  29.94 Ksi3
  3   1    -9.00        7.295        7.295        7.295   1.000   1.000   0.00 Ksi4
  3   2    -9.25       34.538       29.211       29.211   1.000   1.000 100.00 Ksi3
  3   3    -9.50       60.467       50.076       50.076   1.000   1.000 100.00 Ksi3
  3   4    -9.75       91.947       75.381       75.381   1.000   1.000 100.00 Ksi3
  3   5   -10.00      114.934       93.893       93.893   1.000   1.000 100.00 Ksi3
  3   6   -10.25      152.045      123.703      123.703   1.000   1.000 100.00 Ksi3
  3   7   -10.50      177.012      147.107      147.107   1.000   1.000 100.00 Ksi3
  3   8   -10.75      187.227      152.092      152.092   1.000   1.000 100.00 Ksi3
  3   9   -11.00      190.195      154.588      154.588   1.000   1.000 100.00 Ksi3
  3  10   -11.25      192.984      156.941      156.941   1.000   1.000 100.00 Ksi3
  3  11   -11.50      195.777      159.296      159.296   1.000   1.000 100.00 Ksi3
  3  12   -11.75      198.536      161.625      161.625   1.000   1.000 100.00 Ksi3
  3  13   -12.00      201.142      163.832      163.832   1.000   1.000 100.00 Ksi3
  3  14   -12.25      204.899      166.959      166.959   1.000   1.000 100.00 Ksi3
  3  15   -12.50      208.648      170.080      170.080   1.000   1.000 100.00 Ksi3
  3  16   -12.75      211.576      172.543      172.543   1.000   1.000 100.00 Ksi3
  3  17   -13.00      214.729      175.187      175.187   1.000   1.000 100.00 Ksi3
  3  18   -13.25      217.778      177.749      177.749   1.000   1.000 100.00 Ksi3
  3  19   -13.50      221.941      181.200      181.200   1.000   1.000 100.00 Ksi3
  3  20   -13.75      229.401      187.290      187.290   1.000   1.000 100.00 Ksi3
  3  21   -14.00      237.466      193.863      193.863   1.000   1.000 100.00 Ksi3
  3  22   -14.25      238.074      194.471      194.471   1.000   1.000 100.00 Ksi3
  3  23   -14.50      238.681      195.079      195.079   1.000   1.000 100.00 Ksi3
  3  24   -14.75      239.289      195.687      195.687   1.000   1.000 100.00 Ksi3
  3  25   -15.00      240.116      196.536      196.536   1.000   1.000  99.86 Ksi3
  3  26   -15.25      252.200      209.834      209.834   1.000   1.000  93.10 Ksi3
  3  27   -15.50      262.169      220.794      220.794   1.000   1.000  88.22 Ksi3
  3  28   -15.75      269.557      228.804      228.804   1.000   1.000  85.04 Ksi3
  3  29   -16.00      281.406      241.008      241.008   1.000   1.000  80.49 Ksi3
  3  30   -16.25      294.868      254.601      254.601   1.000   1.000  75.94 Ksi3
  3  31   -16.50      308.199      267.906      267.906   1.000   1.000  71.96 Ksi3
  3  32   -16.75      321.374      280.947      280.947   1.000   1.000  68.45 Ksi3
  3  33   -17.00      334.393      293.749      293.749   1.000   1.000  65.32 Ksi3
  3  34   -17.25      347.263      306.335      306.335   1.000   1.000  62.52 Ksi3
  3  35   -17.50      359.994      318.726      318.726   1.000   1.000  59.98 Ksi3
  3  36   -17.75      372.599      330.941      330.941   1.000   1.000  57.68 Ksi3
  3  37   -18.00      385.090      342.997      342.997   1.000   1.000  55.58 Ksi3
  3  38   -18.25      397.476      354.908      354.908   1.000   1.000  53.64 Ksi3
  3  39   -18.50      409.768      366.688      366.688   1.000   1.000  51.86 Ksi3
  3  40   -18.75      421.977      378.349      378.349   1.000   1.000  50.21 Ksi3
  3  41   -19.00      434.109      389.903      389.903   1.000   1.000  48.68 Ksi3
  3  42   -19.25      446.174      401.358      401.358   1.000   1.000  47.25 Ksi3
  3  43   -19.50      458.177      412.723      412.723   1.000   1.000  45.91 Ksi3
  3  44   -19.75      470.573      424.429      424.429   1.000   1.000  44.61 Ksi3
  3  45   -20.00      485.129      438.181      438.181   1.000   1.000  43.16 Ksi3
  3  46   -20.25      499.424      451.707      451.707   1.000   1.000  41.82 Ksi3
  3  47   -20.50      513.498      465.031      465.031   1.000   1.000  40.58 Ksi3
  3  48   -20.75      527.384      478.173      478.173   1.000   1.000  39.43 Ksi3
  3  49   -21.00      539.575      489.695      489.695   1.000   1.000  38.48 Ksi3
  3  50   -21.25      550.756      500.210      500.210   1.000   1.000  37.66 Ksi3
  3  51   -21.50      561.979      510.717      510.717   1.000   1.000  36.87 Ksi3
  3  52   -21.75      573.233      521.215      521.215   1.000   1.000  36.12 Ksi3
  3  53   -22.00      584.512      531.703      531.703   1.000   1.000  35.39 Ksi3
  3  54   -22.25      595.808      542.183      542.183   1.000   1.000  34.70 Ksi3
  3  55   -22.50      607.118      552.652      552.652   1.000   1.000  34.03 Ksi3
  3  56   -22.75      618.651      563.308      563.308   1.000   1.000  33.37 Ksi3
  3  57   -23.00      632.539      576.141      576.141   1.000   1.000  32.61 Ksi3
  3  58   -23.25      646.260      588.846      588.846   1.000   1.000  31.89 Ksi3
  3  59   -23.50      659.838      601.435      601.435   1.000   1.000  31.21 Ksi3
  3  60   -23.75      673.292      613.920      613.920   1.000   1.000  30.56 Ksi3
  3  61   -24.00      686.639      626.310      626.310   1.000   1.000  29.94 Ksi3
  4   1    -9.00        7.295        7.295        7.295   1.000   1.000   0.00 Ksi4
  4   2    -9.25       34.538       29.211       29.211   1.000   1.000 100.00 Ksi3
  4   3    -9.50       60.467       50.076       50.076   1.000   1.000 100.00 Ksi3
  4   4    -9.75       91.947       75.381       75.381   1.000   1.000 100.00 Ksi3
  4   5   -10.00      110.338       93.893       93.893   1.000   1.000 100.00 Ksi3
  4   6   -10.25      118.286      118.286      118.286   1.000   1.000 100.00 Ksi4
  4   7   -10.50      126.233      126.233      126.233   1.000   1.000 100.00 Ksi4
  4   8   -10.75      134.181      134.181      134.181   1.000   1.000 100.00 Ksi4
  4   9   -11.00      142.129      142.129      142.129   1.000   1.000 100.00 Ksi4
  4  10   -11.25      150.076      150.076      150.076   1.000   1.000 100.00 Ksi4
  4  11   -11.50      158.024      158.024      158.024   1.000   1.000 100.00 Ksi4
  4  12   -11.75      165.972      161.625      161.625   1.000   1.000 100.00 Ksi3
  4  13   -12.00      173.919      163.832      163.832   1.000   1.000 100.00 Ksi3
  4  14   -12.25      181.867      166.959      166.959   1.000   1.000 100.00 Ksi3
  4  15   -12.50      189.814      170.080      170.080   1.000   1.000 100.00 Ksi3
  4  16   -12.75      197.762      172.543      172.543   1.000   1.000 100.00 Ksi3
  4  17   -13.00      205.710      175.187      175.187   1.000   1.000 100.00 Ksi3
  4  18   -13.25      213.657      177.749      177.749   1.000   1.000 100.00 Ksi3
  4  19   -13.50      221.605      181.200      181.200   1.000   1.000 100.00 Ksi3
  4  20   -13.75      229.401      187.290      187.290   1.000   1.000 100.00 Ksi3
  4  21   -14.00      237.466      193.863      193.863   1.000   1.000 100.00 Ksi3
  4  22   -14.25      238.074      194.471      194.471   1.000   1.000 100.00 Ksi3
  4  23   -14.50      238.681      195.079      195.079   1.000   1.000 100.00 Ksi3
  4  24   -14.75      239.289      195.687      195.687   1.000   1.000 100.00 Ksi3
  4  25   -15.00      240.092      196.517      196.517   1.000   1.000  99.87 Ksi3
  4  26   -15.25      250.825      208.723      208.723   1.000   1.000  93.65 Ksi3
  4  27   -15.50      259.577      218.688      218.688   1.000   1.000  89.17 Ksi3
  4  28   -15.75      266.068      225.942      225.942   1.000   1.000  86.24 Ksi3
  4  29   -16.00      275.190      236.881      236.881   1.000   1.000  82.05 Ksi3
  4  30   -16.25      283.138      248.926      248.926   1.000   1.000  77.86 Ksi3
  4  31   -16.50      291.086      260.583      260.583   1.000   1.000  74.20 Ksi3
  4  32   -16.75      299.033      271.882      271.882   1.000   1.000  70.97 Ksi3
  4  33   -17.00      306.981      282.855      282.855   1.000   1.000  68.10 Ksi3
  4  34   -17.25      314.929      293.531      293.531   1.000   1.000  65.52 Ksi3
  4  35   -17.50      322.876      303.938      303.938   1.000   1.000  63.20 Ksi3
  4  36   -17.75      330.824      314.101      314.101   1.000   1.000  61.08 Ksi3
  4  37   -18.00      338.771      324.042      324.042   1.000   1.000  59.15 Ksi3
  4  38   -18.25      346.719      333.783      333.783   1.000   1.000  57.37 Ksi3
  4  39   -18.50      354.667      343.342      343.342   1.000   1.000  55.73 Ksi3
  4  40   -18.75      362.614      352.736      352.736   1.000   1.000  54.21 Ksi3
  4  41   -19.00      370.562      361.982      361.982   1.000   1.000  52.79 Ksi3
  4  42   -19.25      378.510      371.093      371.093   1.000   1.000  51.47 Ksi3
  4  43   -19.50      386.457      380.082      380.082   1.000   1.000  50.23 Ksi3
  4  44   -19.75      394.405      389.287      389.287   1.000   1.000  49.01 Ksi3
  4  45   -20.00      402.352      399.982      399.982   1.000   1.000  47.66 Ksi3
  4  46   -20.25      410.300      410.300      410.300   1.000   1.000  54.69 Ksi4
  4  47   -20.50      418.248      418.248      418.248   1.000   1.000  53.50 Ksi4
  4  48   -20.75      426.195      426.195      426.195   1.000   1.000  52.38 Ksi4
  4  49   -21.00      434.143      434.143      434.143   1.000   1.000  51.46 Ksi4
  4  50   -21.25      442.091      442.091      442.091   1.000   1.000  50.63 Ksi4
  4  51   -21.50      450.038      450.038      450.038   1.000   1.000  49.83 Ksi4
  4  52   -21.75      457.986      457.986      457.986   1.000   1.000  49.04 Ksi4
  4  53   -22.00      465.933      465.933      465.933   1.000   1.000  48.28 Ksi4
  4  54   -22.25      473.881      473.881      473.881   1.000   1.000  47.53 Ksi4
  4  55   -22.50      481.829      481.829      481.829   1.000   1.000  46.80 Ksi4
  4  56   -22.75      489.776      489.776      489.776   1.000   1.000  46.08 Ksi4
  4  57   -23.00      497.724      497.724      497.724   1.000   1.000  45.23 Ksi4
  4  58   -23.25      505.672      505.672      505.672   1.000   1.000  44.43 Ksi4
  4  59   -23.50      513.619      513.619      513.619   1.000   1.000  43.67 Ksi4
  4  60   -23.75      521.567      521.567      521.567   1.000   1.000  42.95 Ksi4
  4  61   -24.00      529.514      529.514      529.514   1.000   1.000  42.26 Ksi4
[END OF DATA]
[END OF TABLE]
[END OF OVERALL RESULTS]

[CALCULATION PARAMETERS TENSION PILES]
   1.250 : Ksi3
   1.000 : Ksi4
   1.350 : Gamma_st
[END OF CALCULATION PARAMETERS TENSION PILES]

[END OF PRELIMINARY DESIGN RESULTS]
[FOOTNOTE WARNINGS]
[PILE TYPE]
PileTypeNumber = 1
WarningFootNoteCTable7c = 0
WarningFootNoteDTable7c = 0
[END OF PILE TYPE]
[END OF FOOTNOTE WARNINGS]
[CALCULATION WARNINGS]
0 = IsWarningF1Given (1=true, 0=false)
0 = F1GreaterThan1Found (1=true, 0=false)
0 = IsWarningNENDepthGiven (1=true, 0=false)
0 = IsWarningSFFundWidthGiven (1=true, 0=false)
0 = IsWarningSFFundLengthGiven (1=true, 0=false)
0 = IsWarningSFCudGiven (1=true, 0=false)
0 = IsWarningSFDeltaPhiGiven (1=true, 0=false)
  0 = IsWarningNENSpacingGiven (> 0 warning, 0= no warning)
0 = IsWarningSFSlopeNotRelevantGiven (1=true, 0=false)
0 = IsWarningNENSFPlacementDepthTooDeep (1=true, 0=false)
0 = IsWarningNENSFPlacementDepthTooShallow (1=true, 0=false)
0 = FIsWarningNENBPPositiveSkinFrictionZoneGiven (1=true, 0=false)
0 = FIsWarningSFFoundationLevelForPunchToDeepForSlopeGiven (1=true, 0=false)
[END OF CALCULATION WARNINGS]
[END OF DUMPFILE OUTPUT]
[END OF DUMPFILE]
